Time t / s,Current I_A1 / A,Voltage U_B1 / V,Voltage U_B2 / V,Voltage U_A2 / V
0,0.0173,1.3845,0.066,0.6615
0.1,0.01725,1.383,0.066,0.6615
0.2,0.0173,1.3845,0.066,0.6615
0.3,0.0172,1.3845,0.066,0.6615
0.4,0.0173,1.3845,0.066,0.6615
0.5,0.0173,1.3845,0.066,0.6615
0.6,0.0173,1.3845,0.066,0.6615
0.7,0.01725,1.3845,0.066,0.6615
0.8,0.0173,1.3845,0.066,0.66
0.9,0.0173,1.3845,0.066,0.66
0.999,0.0173,1.3845,0.066,0.66
1.1,0.01735,1.3845,0.066,0.66
1.199,0.0173,1.383,0.0615,0.66
1.299,0.01735,1.3845,0.066,0.66
1.4,0.01735,1.3845,0.066,0.66
1.5,0.01735,1.3845,0.066,0.66
1.6,0.0173,1.3845,0.066,0.66
1.7,0.01725,1.3845,0.066,0.66
1.8,0.01735,1.3845,0.066,0.66
1.9,0.01735,1.3845,0.066,0.66
1.999,0.01735,1.3845,0.066,0.66
2.1,0.0173,1.3845,0.066,0.66
2.199,0.01735,1.3845,0.066,0.6615
2.3,0.01735,1.3845,0.066,0.6615
2.4,0.01735,1.3845,0.066,0.663
2.5,0.01735,1.3845,0.066,0.663
2.6,0.0173,1.3845,0.066,0.6645
2.7,0.01735,1.3845,0.066,0.666
2.8,0.0173,1.3845,0.066,0.666
2.901,0.01735,1.3845,0.066,0.6675
3.001,0.0173,1.3845,0.066,0.6675
3.1,0.0173,1.3845,0.066,0.669
3.2,0.0173,1.3845,0.066,0.6705
3.299,0.0173,1.3845,0.066,0.6705
3.399,0.0174,1.3845,0.066,0.672
3.5,0.01735,1.3845,0.066,0.6735
3.6,0.01735,1.383,0.066,0.675
3.7,0.01735,1.383,0.066,0.675
3.8,0.01735,1.3845,0.066,0.6765
3.9,0.01735,1.3845,0.066,0.678
3.999,0.01735,1.3845,0.066,0.6795
4.1,0.0174,1.383,0.066,0.681
4.201,0.01735,1.383,0.066,0.681
4.3,0.01735,1.383,0.066,0.6825
4.399,0.01725,1.383,0.066,0.6825
4.5,0.0173,1.383,0.066,0.6855
4.6,0.01735,1.383,0.066,0.687
4.7,0.0173,1.383,0.066,0.687
4.8,0.01725,1.383,0.066,0.6885
4.901,0.01735,1.383,0.066,0.69
5,0.01725,1.383,0.066,0.69
5.1,0.01735,1.383,0.0645,0.6915
5.2,0.01735,1.3815,0.066,0.693
5.3,0.01725,1.3815,0.0645,0.6945
5.4,0.01725,1.3815,0.0645,0.696
5.499,0.01725,1.3815,0.0645,0.696
5.6,0.01725,1.3815,0.0645,0.6975
5.7,0.0173,1.3815,0.0645,0.699
5.8,0.0173,1.38,0.0645,0.7005
5.9,0.01725,1.38,0.0645,0.7005
6,0.01735,1.38,0.0645,0.699
6.1,0.0173,1.38,0.0645,0.705
6.2,0.01725,1.38,0.0645,0.705
6.3,0.0173,1.38,0.0645,0.7065
6.4,0.01725,1.3785,0.0645,0.708
6.502,0.0171,1.3785,0.0645,0.7095
6.6,0.01725,1.3785,0.0645,0.7095
6.701,0.01725,1.3785,0.0645,0.711
6.8,0.01725,1.377,0.0645,0.7125
6.9,0.01725,1.377,0.0645,0.714
7,0.01725,1.377,0.0645,0.714
7.1,0.01725,1.377,0.063,0.7155
7.199,0.01725,1.3755,0.063,0.7155
7.299,0.01725,1.3755,0.063,0.717
7.4,0.01725,1.3755,0.063,0.7185
7.5,0.01725,1.3755,0.063,0.72
7.6,0.0173,1.374,0.063,0.7215
7.7,0.01725,1.374,0.063,0.7215
7.8,0.01725,1.374,0.063,0.723
7.901,0.0173,1.3725,0.063,0.7245
8,0.01725,1.3725,0.063,0.726
8.1,0.01725,1.3725,0.063,0.7275
8.2,0.01725,1.371,0.063,0.729
8.3,0.01725,1.371,0.063,0.729
8.399,0.01725,1.371,0.063,0.7305
8.5,0.01725,1.3695,0.063,0.732
8.6,0.01725,1.3695,0.063,0.732
8.7,0.01725,1.368,0.0615,0.7335
8.801,0.01725,1.368,0.0615,0.735
8.9,0.01725,1.368,0.0615,0.738
9,0.01725,1.3665,0.0615,0.7365
9.1,0.01725,1.3665,0.0615,0.738
9.2,0.01725,1.365,0.0615,0.7395
9.3,0.01725,1.365,0.0615,0.7395
9.4,0.0173,1.3635,0.0615,0.741
9.5,0.01725,1.3635,0.0615,0.744
9.6,0.0173,1.362,0.0615,0.7455
9.7,0.01725,1.362,0.0615,0.744
9.8,0.01725,1.3605,0.0615,0.747
9.9,0.01725,1.3605,0.0615,0.7485
10,0.01725,1.359,0.0615,0.7485
10.101,0.01725,1.359,0.06,0.7515
10.201,0.01725,1.3575,0.06,0.753
10.3,0.01725,1.3575,0.06,0.7545
10.4,0.01725,1.356,0.06,0.753
10.5,0.01725,1.356,0.06,0.7545
10.6,0.01725,1.3545,0.06,0.7545
10.7,0.01725,1.353,0.06,0.756
10.8,0.01725,1.353,0.06,0.7575
10.9,0.01725,1.3515,0.06,0.7575
11,0.01725,1.3515,0.06,0.7605
11.1,0.01725,1.35,0.06,0.7605
11.2,0.01725,1.3485,0.06,0.7635
11.3,0.0172,1.3485,0.06,0.7635
11.4,0.0172,1.347,0.06,0.765
11.5,0.01715,1.347,0.06,0.765
11.6,0.01725,1.3455,0.0585,0.768
11.7,0.01725,1.344,0.0585,0.768
11.8,0.0171,1.344,0.0585,0.7695
11.9,0.0171,1.3425,0.0585,0.7725
12.001,0.01725,1.341,0.0585,0.7725
12.1,0.0171,1.341,0.0585,0.7725
12.2,0.0173,1.3395,0.0585,0.774
12.301,0.01725,1.338,0.0585,0.7785
12.4,0.01725,1.3365,0.0585,0.7755
12.5,0.01725,1.3365,0.0585,0.777
12.6,0.01725,1.335,0.0585,0.7785
12.7,0.01725,1.3335,0.0585,0.7815
12.8,0.01725,1.332,0.057,0.783
12.9,0.01715,1.332,0.057,0.7815
13,0.01715,1.3305,0.057,0.783
13.1,0.01715,1.329,0.057,0.786
13.2,0.01715,1.3275,0.057,0.786
13.3,0.01715,1.326,0.057,0.786
13.4,0.0171,1.326,0.057,0.7875
13.5,0.0172,1.3245,0.057,0.7875
13.6,0.01715,1.323,0.057,0.789
13.701,0.0171,1.3215,0.057,0.7905
13.8,0.0172,1.32,0.057,0.7905
13.899,0.0173,1.3185,0.057,0.7935
14,0.0172,1.317,0.057,0.7935
14.1,0.0172,1.3155,0.0555,0.795
14.2,0.0171,1.314,0.0555,0.798
14.3,0.01715,1.3125,0.0555,0.798
14.4,0.01715,1.3125,0.0555,0.798
14.5,0.01725,1.311,0.0555,0.7995
14.6,0.01715,1.3095,0.0555,0.801
14.7,0.01725,1.308,0.0555,0.8025
14.801,0.01715,1.3065,0.0555,0.804
14.9,0.01725,1.305,0.0555,0.8055
15,0.0172,1.3035,0.054,0.81
15.101,0.0171,1.302,0.054,0.8085
15.2,0.0172,1.3005,0.054,0.81
15.3,0.0172,1.299,0.054,0.81
15.401,0.0171,1.2975,0.054,0.8115
15.5,0.0172,1.296,0.054,0.8115
15.601,0.0171,1.2945,0.054,0.813
15.7,0.0173,1.293,0.054,0.8145
15.8,0.01725,1.2915,0.054,0.8145
15.9,0.01725,1.29,0.054,0.816
16.001,0.0172,1.2885,0.054,0.8175
16.1,0.01725,1.287,0.054,0.8175
16.2,0.01725,1.2855,0.054,0.819
16.301,0.01715,1.284,0.0525,0.8205
16.401,0.01725,1.2825,0.0525,0.822
16.5,0.01725,1.281,0.0525,0.8235
16.6,0.01715,1.278,0.0525,0.8235
16.7,0.0173,1.278,0.0525,0.825
16.8,0.0173,1.275,0.0525,0.8265
16.899,0.01735,1.2735,0.0525,0.828
16.999,0.01735,1.272,0.0525,0.8295
17.1,0.01725,1.2705,0.0525,0.831
17.201,0.0172,1.269,0.051,0.831
17.3,0.01735,1.2675,0.051,0.8325
17.4,0.0173,1.266,0.051,0.834
17.5,0.01735,1.263,0.051,0.8355
17.6,0.01735,1.2615,0.051,0.837
17.699,0.01735,1.26,0.051,0.837
17.8,0.01735,1.2585,0.051,0.8385
17.901,0.0173,1.257,0.051,0.84
18,0.0173,1.254,0.051,0.84
18.1,0.0173,1.2525,0.051,0.8415
18.201,0.01735,1.251,0.051,0.843
18.3,0.0173,1.2495,0.051,0.8445
18.4,0.0174,1.248,0.0495,0.8445
18.501,0.01735,1.245,0.0495,0.846
18.601,0.0173,1.2435,0.0495,0.8475
18.7,0.01735,1.242,0.0495,0.849
18.8,0.0174,1.2405,0.0495,0.8505
18.9,0.01735,1.239,0.0495,0.852
19.001,0.01735,1.236,0.0495,0.852
19.1,0.01735,1.2345,0.0495,0.8535
19.2,0.01735,1.233,0.0495,0.855
19.301,0.01735,1.23,0.0495,0.8565
19.4,0.01735,1.2285,0.048,0.8565
19.499,0.0174,1.227,0.048,0.858
19.6,0.0174,1.224,0.048,0.8595
19.7,0.01735,1.2225,0.048,0.861
19.8,0.0174,1.221,0.048,0.861
19.9,0.0174,1.218,0.048,0.8625
20.006,0.0173,1.2165,0.048,0.8655
20.1,0.01735,1.2135,0.048,0.864
20.2,0.0173,1.212,0.048,0.8655
20.301,0.0173,1.2105,0.048,0.867
20.4,0.0173,1.2075,0.048,0.8685
20.501,0.01735,1.206,0.048,0.8685
20.601,0.01735,1.2045,0.048,0.87
20.7,0.0173,1.2015,0.0465,0.8715
20.801,0.01735,1.2,0.0465,0.873
20.9,0.01735,1.1985,0.0465,0.873
21,0.0174,1.197,0.0465,0.8745
21.101,0.0174,1.194,0.0465,0.876
21.201,0.01735,1.1925,0.0465,0.8775
21.3,0.01735,1.191,0.0465,0.8775
21.4,0.01735,1.188,0.0465,0.879
21.5,0.01735,1.1865,0.0465,0.8805
21.6,0.01725,1.185,0.045,0.882
21.7,0.01735,1.182,0.045,0.882
21.8,0.0173,1.1805,0.045,0.8835
21.901,0.0173,1.1775,0.045,0.885
22.001,0.01735,1.176,0.045,0.8865
22.101,0.01735,1.173,0.045,0.8865
22.2,0.0173,1.1715,0.045,0.8895
22.3,0.01725,1.1685,0.045,0.8895
22.4,0.01725,1.167,0.045,0.891
22.501,0.0174,1.164,0.045,0.891
22.6,0.0173,1.1625,0.045,0.8925
22.7,0.0173,1.1595,0.0435,0.894
22.801,0.01735,1.158,0.0435,0.8955
22.901,0.01735,1.155,0.0435,0.897
23,0.01725,1.1535,0.0435,0.8985
23.1,0.01725,1.1505,0.0435,0.9015
23.2,0.0173,1.149,0.0435,0.9
23.3,0.01725,1.146,0.0435,0.903
23.401,0.01735,1.1445,0.0435,0.9015
23.5,0.01725,1.1415,0.0435,0.903
23.6,0.01725,1.14,0.042,0.9045
23.701,0.01735,1.137,0.042,0.9045
23.8,0.0173,1.1355,0.042,0.906
23.9,0.01725,1.1325,0.042,0.909
24,0.01725,1.1295,0.042,0.9105
24.1,0.01725,1.128,0.042,0.912
24.2,0.01725,1.125,0.042,0.912
24.3,0.01725,1.1235,0.042,0.9135
24.4,0.01725,1.1205,0.042,0.915
24.5,0.01725,1.119,0.042,0.915
24.6,0.01725,1.116,0.042,0.9165
24.7,0.01725,1.113,0.0405,0.9165
24.8,0.01725,1.1115,0.0405,0.9165
24.9,0.01725,1.1085,0.0405,0.921
25,0.01725,1.107,0.0405,0.921
25.1,0.01725,1.104,0.0405,0.9225
25.201,0.01725,1.1025,0.0405,0.9225
25.3,0.01725,1.0995,0.0405,0.924
25.4,0.01725,1.098,0.0405,0.924
25.5,0.0173,1.095,0.0405,0.927
25.6,0.0173,1.092,0.0405,0.9285
25.701,0.01725,1.0905,0.039,0.9285
25.8,0.01725,1.0875,0.039,0.93
25.901,0.01725,1.086,0.039,0.9315
26,0.01725,1.083,0.039,0.933
26.1,0.01725,1.08,0.039,0.933
26.201,0.0173,1.0785,0.039,0.933
26.301,0.0173,1.0755,0.039,0.9345
26.4,0.01725,1.074,0.039,0.936
26.499,0.01725,1.071,0.039,0.9375
26.601,0.01725,1.068,0.039,0.9375
26.699,0.01725,1.0665,0.0375,0.9405
26.8,0.01725,1.0635,0.0375,0.939
26.9,0.0173,1.062,0.0375,0.9435
27,0.01725,1.059,0.0375,0.942
27.101,0.01725,1.056,0.0375,0.945
27.2,0.01725,1.0545,0.0375,0.945
27.3,0.01725,1.0515,0.0375,0.9465
27.4,0.01725,1.05,0.0375,0.948
27.5,0.0173,1.047,0.0375,0.9495
27.601,0.01725,1.0455,0.0375,0.948
27.701,0.01725,1.0425,0.0375,0.951
27.8,0.01725,1.0395,0.036,0.951
27.9,0.01725,1.038,0.036,0.954
28,0.01725,1.035,0.036,0.9555
28.1,0.01725,1.032,0.036,0.957
28.201,0.01725,1.0305,0.036,0.957
28.3,0.01725,1.0275,0.036,0.9585
28.4,0.0173,1.0245,0.036,0.96
28.499,0.01725,1.023,0.036,0.9615
28.6,0.01725,1.02,0.036,0.9615
28.699,0.01725,1.017,0.036,0.963
28.8,0.0172,1.0155,0.036,0.963
28.9,0.01725,1.0125,0.0345,0.9645
29.003,0.01725,1.0095,0.036,0.963
29.1,0.0173,1.008,0.0345,0.9675
29.2,0.0172,1.0065,0.0345,0.969
29.3,0.01725,1.0035,0.0345,0.969
29.4,0.01715,1.0005,0.0345,0.9705
29.501,0.0173,0.999,0.0345,0.972
29.601,0.0173,0.996,0.0345,0.9735
29.7,0.0171,0.993,0.0345,0.975
29.8,0.0171,0.9915,0.0345,0.975
29.899,0.0171,0.9885,0.033,0.9765
29.999,0.0171,0.9855,0.033,0.978
30.1,0.01725,0.984,0.033,0.978
30.2,0.0171,0.981,0.033,0.9795
30.299,0.0172,0.9795,0.033,0.9825
30.4,0.0171,0.9765,0.033,0.9825
30.5,0.0171,0.9735,0.033,0.9825
30.6,0.0171,0.972,0.033,0.984
30.701,0.01725,0.969,0.033,0.9855
30.8,0.0171,0.966,0.033,0.987
30.9,0.01715,0.9645,0.033,0.9885
31,0.0171,0.9615,0.033,0.9885
31.1,0.0171,0.96,0.0315,0.99
31.2,0.01725,0.957,0.0315,0.9915
31.3,0.0172,0.954,0.0315,0.993
31.4,0.0172,0.9525,0.0315,0.993
31.5,0.0172,0.9495,0.0315,0.9915
31.601,0.01725,0.9465,0.0315,0.993
31.701,0.01725,0.945,0.0315,0.996
31.8,0.01715,0.942,0.0315,0.9975
31.9,0.01715,0.9405,0.0315,0.999
31.999,0.0172,0.9375,0.0315,1.0005
32.1,0.0172,0.9345,0.0315,1.002
32.2,0.0171,0.933,0.0315,1.002
32.3,0.0172,0.93,0.03,1.0035
32.399,0.01725,0.927,0.03,1.005
32.499,0.0173,0.9255,0.03,1.005
32.599,0.0173,0.9225,0.03,1.0065
32.699,0.0172,0.9195,0.03,1.008
32.8,0.0172,0.918,0.03,1.008
32.9,0.0172,0.915,0.03,1.0095
33,0.0172,0.9135,0.03,1.011
33.1,0.0171,0.9105,0.03,1.011
33.199,0.0172,0.909,0.03,1.0125
33.3,0.0172,0.906,0.03,1.014
33.4,0.0172,0.903,0.03,1.0155
33.5,0.01725,0.9,0.03,1.017
33.6,0.01725,0.8985,0.03,1.017
33.7,0.01715,0.8955,0.03,1.0185
33.8,0.01725,0.894,0.0285,1.02
33.9,0.0171,0.891,0.0285,1.02
33.999,0.0173,0.888,0.0285,1.0215
34.1,0.01725,0.8865,0.0285,1.023
34.2,0.01725,0.8835,0.0285,1.0245
34.3,0.01725,0.882,0.0285,1.0245
34.4,0.0173,0.879,0.0285,1.0245
34.5,0.01715,0.876,0.0285,1.026
34.6,0.0172,0.8745,0.0285,1.0275
34.7,0.01715,0.8715,0.027,1.029
34.8,0.0173,0.87,0.027,1.0305
34.9,0.0173,0.867,0.027,1.0305
35,0.0172,0.8655,0.027,1.032
35.099,0.01725,0.8625,0.027,1.0335
35.2,0.0173,0.8595,0.027,1.035
35.3,0.0173,0.858,0.027,1.035
35.4,0.0172,0.855,0.027,1.0365
35.5,0.0172,0.8535,0.027,1.038
35.6,0.0173,0.8505,0.027,1.038
35.7,0.0172,0.849,0.027,1.0395
35.799,0.0173,0.846,0.027,1.041
35.9,0.0172,0.843,0.027,1.0425
35.999,0.0173,0.8415,0.0255,1.0425
36.099,0.0173,0.8385,0.0255,1.044
36.199,0.0173,0.8355,0.0255,1.0455
36.3,0.0173,0.834,0.0255,1.0455
36.401,0.01715,0.831,0.0255,1.047
36.5,0.0173,0.8295,0.0255,1.0485
36.6,0.0173,0.8265,0.0255,1.0485
36.699,0.0173,0.825,0.0255,1.05
36.799,0.01735,0.822,0.0255,1.0515
36.9,0.0173,0.819,0.0255,1.053
37,0.01725,0.8175,0.0255,1.0545
37.1,0.01725,0.816,0.0255,1.0545
37.2,0.01735,0.813,0.0255,1.056
37.301,0.0173,0.81,0.0255,1.056
37.4,0.0173,0.8085,0.0255,1.0575
37.5,0.0173,0.807,0.024,1.059
37.599,0.01735,0.804,0.024,1.059
37.7,0.0173,0.801,0.024,1.0605
37.799,0.01735,0.7995,0.024,1.062
37.899,0.01735,0.798,0.024,1.062
38,0.0173,0.795,0.024,1.065
38.1,0.01735,0.792,0.024,1.065
38.2,0.0172,0.7905,0.024,1.0665
38.3,0.0173,0.7875,0.024,1.068
38.399,0.01735,0.786,0.024,1.068
38.5,0.01735,0.783,0.024,1.0695
38.601,0.0173,0.7815,0.024,1.071
38.7,0.01735,0.7785,0.024,1.071
38.8,0.01735,0.777,0.024,1.0725
38.901,0.0173,0.774,0.024,1.074
39,0.0173,0.771,0.0225,1.074
39.1,0.0173,0.7695,0.0225,1.0755
39.2,0.0173,0.768,0.0225,1.077
39.3,0.01735,0.765,0.0225,1.0785
39.4,0.0174,0.7635,0.0225,1.0785
39.5,0.01735,0.7605,0.0225,1.08
39.6,0.0174,0.759,0.0225,1.08
39.7,0.0174,0.7575,0.0225,1.0815
39.799,0.0174,0.7545,0.0225,1.083
39.9,0.01735,0.753,0.0225,1.0845
39.999,0.0174,0.75,0.0225,1.0845
40.1,0.01735,0.7485,0.0225,1.086
40.2,0.0173,0.7455,0.0225,1.0875
40.3,0.0174,0.744,0.0225,1.0875
40.4,0.0174,0.741,0.0225,1.089
40.499,0.0174,0.7395,0.0225,1.0905
40.6,0.01735,0.7365,0.0225,1.092
40.7,0.0174,0.735,0.0225,1.092
40.8,0.0174,0.7335,0.021,1.0935
40.899,0.0174,0.7305,0.021,1.095
41,0.01735,0.729,0.0225,1.095
41.1,0.0174,0.726,0.021,1.0965
41.199,0.01735,0.7245,0.021,1.0965
41.3,0.0174,0.7215,0.021,1.098
41.401,0.01735,0.72,0.021,1.0995
41.5,0.0174,0.7185,0.021,1.101
41.601,0.01735,0.717,0.021,1.1025
41.7,0.01735,0.714,0.021,1.1025
41.8,0.0174,0.7125,0.021,1.104
41.9,0.01735,0.7095,0.021,1.104
42,0.01735,0.708,0.021,1.1055
42.1,0.0174,0.7065,0.021,1.107
42.199,0.0174,0.7035,0.021,1.107
42.3,0.0174,0.702,0.021,1.1085
42.399,0.0173,0.7005,0.021,1.1085
42.5,0.0174,0.6975,0.021,1.11
42.6,0.0173,0.696,0.021,1.1115
42.7,0.0174,0.6945,0.0195,1.113
42.799,0.0174,0.6915,0.0195,1.113
42.9,0.0174,0.69,0.0195,1.1145
43,0.01735,0.687,0.0195,1.116
43.1,0.01735,0.6855,0.0195,1.116
43.2,0.0174,0.684,0.0195,1.1175
43.299,0.0173,0.681,0.0195,1.1175
43.4,0.0174,0.6795,0.0195,1.1205
43.5,0.0174,0.678,0.0195,1.1205
43.6,0.0174,0.675,0.0195,1.122
43.699,0.0174,0.6735,0.0195,1.122
43.8,0.0174,0.672,0.0195,1.1235
43.9,0.0174,0.6705,0.0195,1.125
44,0.01735,0.669,0.0195,1.1265
44.1,0.01735,0.666,0.0195,1.1265
44.2,0.0174,0.6645,0.0195,1.128
44.3,0.0174,0.663,0.0195,1.1295
44.4,0.0173,0.66,0.0195,1.1295
44.5,0.01735,0.6585,0.0195,1.131
44.6,0.01735,0.657,0.0195,1.1325
44.7,0.0174,0.6555,0.018,1.1325
44.8,0.01735,0.654,0.018,1.134
44.9,0.0174,0.651,0.018,1.1355
45,0.0173,0.6495,0.018,1.1355
45.1,0.0174,0.648,0.018,1.137
45.2,0.0173,0.6465,0.018,1.1385
45.3,0.0173,0.6435,0.018,1.1385
45.4,0.0174,0.642,0.018,1.14
45.5,0.0173,0.6405,0.018,1.14
45.6,0.0174,0.639,0.018,1.143
45.701,0.0174,0.636,0.018,1.143
45.801,0.0174,0.6345,0.018,1.1445
45.9,0.0174,0.633,0.018,1.1445
46,0.0174,0.6315,0.018,1.146
46.101,0.01735,0.6285,0.018,1.1475
46.2,0.0174,0.627,0.018,1.1475
46.3,0.0174,0.6255,0.018,1.149
46.4,0.0174,0.624,0.018,1.1505
46.501,0.0174,0.6225,0.018,1.152
46.6,0.01725,0.621,0.018,1.152
46.7,0.0174,0.6195,0.018,1.1535
46.8,0.01735,0.618,0.018,1.1535
46.9,0.0174,0.615,0.018,1.155
47.001,0.01735,0.6135,0.018,1.1565
47.1,0.01735,0.612,0.018,1.1565
47.2,0.01735,0.6105,0.0165,1.158
47.3,0.0173,0.609,0.0165,1.1595
47.401,0.01735,0.6075,0.0165,1.1595
47.501,0.0174,0.6045,0.0165,1.161
47.6,0.01735,0.603,0.0165,1.161
47.701,0.0174,0.6015,0.0165,1.1625
47.801,0.0174,0.6,0.018,1.161
47.9,0.0173,0.5985,0.0165,1.164
48.001,0.0174,0.597,0.0165,1.167
48.099,0.0173,0.5955,0.0165,1.1655
48.2,0.0173,0.5925,0.0165,1.167
48.3,0.0173,0.591,0.0165,1.1685
48.4,0.01725,0.5895,0.0165,1.17
48.5,0.0173,0.588,0.0165,1.17
48.6,0.01725,0.5865,0.0165,1.1715
48.7,0.0173,0.585,0.0165,1.173
48.8,0.0173,0.5835,0.0165,1.1745
48.901,0.0173,0.582,0.0165,1.1745
49,0.0173,0.5805,0.0165,1.176
49.1,0.0173,0.579,0.0165,1.176
49.2,0.0173,0.5775,0.0165,1.176
49.301,0.0173,0.5745,0.0165,1.1775
49.4,0.0173,0.573,0.0165,1.179
49.5,0.0173,0.5715,0.0165,1.1805
49.599,0.01725,0.57,0.015,1.1805
49.7,0.0173,0.5685,0.015,1.1835
49.799,0.0173,0.567,0.0165,1.182
49.9,0.0173,0.5655,0.015,1.1835
49.999,0.0173,0.564,0.015,1.1835
50.1,0.0173,0.5625,0.015,1.185
50.2,0.0173,0.561,0.015,1.1865
50.3,0.0173,0.5595,0.015,1.1865
50.399,0.0173,0.558,0.015,1.188
50.5,0.0173,0.555,0.015,1.1895
50.601,0.0173,0.5535,0.015,1.191
50.701,0.0173,0.552,0.015,1.1925
50.8,0.0173,0.5505,0.015,1.194
50.9,0.0173,0.549,0.015,1.1955
51.001,0.0173,0.5475,0.015,1.194
51.099,0.0173,0.546,0.015,1.1955
51.201,0.0173,0.5445,0.015,1.1985
51.299,0.0173,0.543,0.015,1.197
51.4,0.0173,0.5415,0.015,1.1985
51.5,0.0173,0.54,0.015,1.2
51.599,0.0173,0.5385,0.015,1.2015
51.7,0.0173,0.537,0.015,1.203
51.8,0.0173,0.5355,0.015,1.2015
51.9,0.0173,0.534,0.015,1.203
52,0.0173,0.5325,0.015,1.2045
52.099,0.0173,0.531,0.015,1.2045
52.2,0.0173,0.5295,0.0135,1.206
52.3,0.0173,0.528,0.015,1.209
52.401,0.0173,0.5265,0.015,1.209
52.5,0.01725,0.525,0.015,1.209
52.6,0.0173,0.5235,0.015,1.209
52.7,0.0173,0.522,0.015,1.212
52.801,0.0173,0.522,0.0135,1.212
52.9,0.01725,0.519,0.0135,1.2135
53,0.0173,0.5175,0.0135,1.215
53.1,0.0173,0.516,0.0135,1.215
53.2,0.0173,0.5145,0.0135,1.2165
53.3,0.0173,0.5145,0.0135,1.2165
53.4,0.0173,0.513,0.0135,1.218
53.5,0.0173,0.5115,0.0135,1.218
53.6,0.0173,0.51,0.0135,1.2195
53.7,0.0173,0.5085,0.0135,1.221
53.8,0.0173,0.507,0.0135,1.2225
53.901,0.0173,0.5055,0.0135,1.224
53.999,0.01725,0.504,0.0135,1.2225
54.102,0.01725,0.5025,0.0135,1.2255
54.2,0.0173,0.501,0.0135,1.2255
54.3,0.0173,0.4995,0.0135,1.227
54.4,0.0173,0.498,0.0135,1.2285
54.5,0.0173,0.4965,0.0135,1.2315
54.601,0.0173,0.495,0.0135,1.23
54.7,0.01725,0.4935,0.0135,1.2315
54.8,0.0173,0.492,0.0135,1.2315
54.9,0.0173,0.4905,0.0135,1.233
55,0.0173,0.489,0.0135,1.2345
55.1,0.0173,0.4875,0.0135,1.236
55.2,0.0172,0.486,0.0135,1.2345
55.301,0.0173,0.486,0.0135,1.2375
55.4,0.01715,0.4845,0.0135,1.236
55.501,0.0173,0.483,0.0135,1.2405
55.6,0.0173,0.4815,0.0135,1.239
55.7,0.01715,0.48,0.0135,1.2405
55.8,0.0173,0.4785,0.0135,1.2435
55.901,0.0173,0.477,0.0135,1.245
56,0.0173,0.4755,0.012,1.245
56.1,0.0173,0.4755,0.0135,1.2435
56.2,0.01715,0.474,0.012,1.245
56.3,0.0173,0.4725,0.012,1.2465
56.4,0.0173,0.471,0.012,1.248
56.5,0.01715,0.4695,0.012,1.248
56.601,0.0173,0.468,0.012,1.251
56.699,0.01715,0.4665,0.012,1.2495
56.8,0.0173,0.465,0.012,1.251
56.899,0.01715,0.4635,0.012,1.251
57,0.01715,0.4635,0.0135,1.2525
57.1,0.01725,0.462,0.012,1.254
57.201,0.01725,0.4605,0.012,1.2555
57.3,0.0173,0.459,0.012,1.257
57.4,0.0172,0.4575,0.012,1.257
57.5,0.01715,0.456,0.012,1.257
57.601,0.01725,0.4545,0.012,1.26
57.7,0.01715,0.4545,0.012,1.2585
57.8,0.0172,0.453,0.012,1.26
57.9,0.0172,0.4515,0.012,1.26
57.999,0.0172,0.45,0.012,1.2615
58.1,0.0172,0.4485,0.012,1.263
58.2,0.0171,0.447,0.012,1.2645
58.3,0.0173,0.447,0.012,1.266
58.401,0.0171,0.4455,0.012,1.2675
58.5,0.0173,0.444,0.012,1.269
58.6,0.0172,0.4425,0.012,1.272
58.7,0.0172,0.441,0.012,1.2675
58.801,0.01715,0.4395,0.012,1.272
58.9,0.01715,0.4395,0.012,1.2705
59,0.0171,0.438,0.012,1.272
59.101,0.01725,0.4365,0.012,1.2735
59.2,0.01715,0.435,0.012,1.2735
59.3,0.01725,0.4335,0.012,1.275
59.4,0.01715,0.432,0.012,1.2765
59.5,0.01715,0.432,0.012,1.2765
59.6,0.01715,0.4305,0.0105,1.2795
59.701,0.01715,0.429,0.012,1.281
59.8,0.01715,0.429,0.012,1.2795
59.899,0.0173,0.4275,0.0105,1.281
60,0.0173,0.426,0.0105,1.281
60.1,0.0172,0.4245,0.0105,1.284
60.2,0.0172,0.4245,0.012,1.284
60.3,0.0173,0.423,0.012,1.284
60.4,0.0172,0.4215,0.0105,1.2855
60.501,0.0172,0.42,0.012,1.2855
60.6,0.0172,0.42,0.012,1.287
60.7,0.0173,0.4185,0.0105,1.2885
60.801,0.0171,0.417,0.0105,1.2915
60.899,0.0173,0.4155,0.0105,1.29
61,0.0172,0.4155,0.0105,1.2915
61.1,0.0172,0.414,0.0105,1.2915
61.2,0.01725,0.4125,0.0105,1.293
61.3,0.0173,0.411,0.0105,1.293
61.4,0.01725,0.4095,0.0105,1.2945
61.5,0.01725,0.4095,0.0105,1.296
61.6,0.01735,0.408,0.0105,1.2975
61.699,0.0173,0.4065,0.0105,1.2975
61.8,0.0173,0.405,0.0105,1.299
61.9,0.0173,0.405,0.0105,1.299
62,0.0173,0.4035,0.0105,1.3005
62.1,0.0173,0.402,0.0105,1.3005
62.2,0.01735,0.4005,0.0105,1.302
62.3,0.0173,0.4005,0.0105,1.3035
62.4,0.0173,0.399,0.0105,1.3035
62.5,0.0173,0.3975,0.0105,1.305
62.6,0.01735,0.3975,0.0105,1.3065
62.701,0.0172,0.396,0.0105,1.308
62.8,0.0173,0.3945,0.0105,1.308
62.9,0.0173,0.393,0.0105,1.3095
63,0.01735,0.393,0.0105,1.3095
63.101,0.0172,0.3915,0.0105,1.311
63.2,0.0173,0.39,0.0105,1.3125
63.3,0.01735,0.39,0.0105,1.3125
63.4,0.0173,0.3885,0.0105,1.314
63.5,0.0173,0.387,0.0105,1.3155
63.6,0.01735,0.387,0.0105,1.3155
63.701,0.0173,0.3855,0.0105,1.3155
63.801,0.01725,0.384,0.0105,1.3185
63.901,0.01735,0.384,0.0105,1.3185
64,0.0173,0.3825,0.0105,1.32
64.1,0.0174,0.381,0.0105,1.32
64.201,0.0173,0.3795,0.0105,1.3215
64.3,0.0173,0.3795,0.0105,1.323
64.4,0.01735,0.378,0.0105,1.323
64.5,0.01735,0.378,0.0105,1.3245
64.6,0.0173,0.3765,0.0105,1.3245
64.699,0.0174,0.375,0.0105,1.326
64.8,0.01735,0.3735,0.009,1.332
64.9,0.01735,0.3735,0.0105,1.3275
65,0.0174,0.372,0.0105,1.329
65.1,0.01735,0.372,0.0105,1.3305
65.2,0.01735,0.3705,0.0105,1.3305
65.301,0.0174,0.369,0.0105,1.332
65.401,0.0173,0.369,0.009,1.332
65.5,0.01735,0.3675,0.009,1.3335
65.6,0.0174,0.366,0.0105,1.335
65.7,0.01735,0.366,0.009,1.335
65.802,0.0173,0.3645,0.009,1.3365
65.9,0.0174,0.363,0.009,1.338
65.999,0.0174,0.363,0.009,1.338
66.101,0.01735,0.3615,0.009,1.3395
66.2,0.0174,0.3615,0.009,1.341
66.3,0.0174,0.36,0.009,1.341
66.4,0.0174,0.3585,0.009,1.3425
66.5,0.0174,0.3585,0.009,1.3425
66.6,0.0174,0.357,0.009,1.344
66.7,0.0174,0.3555,0.009,1.344
66.8,0.0174,0.3555,0.009,1.3455
66.901,0.0174,0.354,0.009,1.347
67.001,0.0174,0.354,0.009,1.347
67.099,0.01735,0.3525,0.009,1.3485
67.2,0.01745,0.351,0.009,1.3485
67.3,0.01735,0.351,0.009,1.35
67.4,0.0174,0.3495,0.009,1.3515
67.5,0.0174,0.348,0.009,1.3515
67.6,0.0174,0.348,0.009,1.353
67.7,0.01735,0.3465,0.009,1.3545
67.8,0.0173,0.3465,0.009,1.3545
67.9,0.0174,0.345,0.009,1.356
68,0.0173,0.345,0.009,1.3575
68.099,0.0173,0.3435,0.009,1.359
68.2,0.0173,0.342,0.009,1.359
68.3,0.0173,0.342,0.009,1.359
68.4,0.0173,0.3405,0.009,1.3605
68.5,0.0173,0.3405,0.009,1.362
68.599,0.0173,0.339,0.009,1.362
68.7,0.0174,0.339,0.009,1.3635
68.8,0.0173,0.3375,0.009,1.3635
68.9,0.0174,0.3375,0.009,1.365
69,0.0174,0.336,0.009,1.365
69.1,0.0173,0.336,0.009,1.3665
69.2,0.0174,0.3345,0.009,1.368
69.3,0.0173,0.3345,0.009,1.368
69.401,0.0174,0.333,0.009,1.3695
69.499,0.0173,0.333,0.009,1.371
69.6,0.0173,0.3315,0.009,1.3725
69.7,0.01735,0.33,0.009,1.3725
69.8,0.0173,0.33,0.009,1.374
69.9,0.01735,0.3285,0.009,1.374
70,0.0173,0.3285,0.009,1.374
70.1,0.0173,0.327,0.009,1.377
70.201,0.01735,0.327,0.009,1.377
70.3,0.0173,0.3255,0.009,1.3785
70.4,0.0173,0.3255,0.009,1.38
70.5,0.0173,0.324,0.009,1.38
70.6,0.0173,0.324,0.009,1.3815
70.7,0.0173,0.3225,0.009,1.383
70.8,0.0173,0.321,0.009,1.383
70.9,0.0173,0.321,0.009,1.383
70.999,0.0173,0.3195,0.009,1.386
71.1,0.0173,0.3195,0.0075,1.3845
71.2,0.0173,0.318,0.009,1.386
71.3,0.0173,0.318,0.0075,1.3875
71.4,0.0173,0.3165,0.009,1.3875
71.5,0.0173,0.3165,0.009,1.3905
71.6,0.0173,0.315,0.0075,1.3905
71.7,0.0173,0.315,0.0075,1.3905
71.8,0.0173,0.3135,0.0075,1.392
71.9,0.0173,0.3135,0.0075,1.392
72,0.0173,0.312,0.0075,1.395
72.1,0.0173,0.312,0.0075,1.395
72.199,0.0173,0.3105,0.0075,1.3965
72.299,0.0173,0.3105,0.0075,1.3965
72.4,0.0173,0.309,0.0075,1.398
72.5,0.0173,0.309,0.0075,1.398
72.6,0.0173,0.3075,0.0075,1.3995
72.7,0.0173,0.3075,0.0075,1.3995
72.8,0.0173,0.306,0.0075,1.401
72.9,0.0173,0.306,0.0075,1.401
72.999,0.0173,0.3045,0.0075,1.4025
73.099,0.0173,0.3045,0.0075,1.404
73.199,0.0173,0.303,0.0075,1.404
73.3,0.0173,0.303,0.0075,1.404
73.4,0.0173,0.3015,0.0075,1.4055
73.501,0.0173,0.3015,0.0075,1.407
73.6,0.0173,0.3,0.0075,1.4085
73.7,0.0173,0.3,0.0075,1.4085
73.8,0.0173,0.2985,0.0075,1.4085
73.9,0.0173,0.2985,0.0075,1.41
74,0.0173,0.297,0.0075,1.4115
74.1,0.0173,0.297,0.0075,1.413
74.199,0.0173,0.2955,0.0075,1.4145
74.301,0.0173,0.2955,0.0075,1.4145
74.4,0.0173,0.294,0.0075,1.4145
74.5,0.0173,0.294,0.0075,1.416
74.6,0.0173,0.294,0.0075,1.4175
74.699,0.0173,0.2925,0.0075,1.416
74.799,0.0173,0.291,0.0075,1.419
74.9,0.0173,0.291,0.0075,1.419
75,0.0173,0.291,0.0075,1.4205
75.1,0.0173,0.2895,0.0075,1.422
75.2,0.0173,0.2895,0.0075,1.422
75.3,0.0173,0.288,0.0075,1.4235
75.401,0.0173,0.288,0.0075,1.422
75.5,0.0173,0.288,0.0075,1.425
75.6,0.0173,0.2865,0.0075,1.4265
75.7,0.0173,0.2865,0.0075,1.425
75.8,0.0173,0.2865,0.0075,1.428
75.901,0.0173,0.285,0.0075,1.428
75.999,0.0171,0.285,0.0075,1.4295
76.1,0.0173,0.2835,0.0075,1.428
76.201,0.0173,0.2835,0.0075,1.431
76.3,0.0173,0.282,0.0075,1.4325
76.399,0.0173,0.282,0.0075,1.434
76.499,0.0173,0.282,0.0075,1.434
76.6,0.0173,0.2805,0.006,1.4355
76.7,0.0173,0.2805,0.0075,1.4355
76.801,0.0173,0.279,0.0075,1.437
76.899,0.0172,0.279,0.0075,1.44
77,0.0172,0.279,0.0075,1.44
77.1,0.01725,0.2775,0.0075,1.44
77.2,0.0172,0.2775,0.0075,1.44
77.3,0.0173,0.276,0.0075,1.4415
77.4,0.0173,0.276,0.0075,1.4415
77.512,0.0173,0.276,0.006,1.4415
77.6,0.0173,0.2745,0.0075,1.443
77.701,0.0173,0.2745,0.0075,1.4445
77.8,0.0173,0.273,0.006,1.4445
77.9,0.0171,0.273,0.0075,1.446
78.001,0.0173,0.273,0.0075,1.446
78.1,0.0173,0.2715,0.0075,1.4475
78.2,0.0173,0.2715,0.006,1.449
78.3,0.0173,0.27,0.006,1.4505
78.401,0.0173,0.27,0.006,1.4505
78.5,0.0173,0.2685,0.0075,1.4505
78.601,0.01725,0.2685,0.0075,1.4505
78.701,0.0173,0.2685,0.006,1.452
78.8,0.0172,0.267,0.0075,1.4535
78.9,0.0172,0.267,0.006,1.455
79,0.0172,0.2655,0.006,1.4565
79.101,0.01715,0.2655,0.006,1.4565
79.2,0.0173,0.2655,0.006,1.4565
79.3,0.0171,0.264,0.006,1.458
79.4,0.0172,0.264,0.006,1.461
79.501,0.0173,0.2625,0.0075,1.458
79.6,0.0173,0.2625,0.006,1.461
79.7,0.0171,0.261,0.006,1.461
79.8,0.01725,0.261,0.006,1.464
79.9,0.01725,0.261,0.006,1.464
79.999,0.01735,0.2595,0.006,1.4655
80.1,0.0172,0.2595,0.006,1.4655
80.2,0.01715,0.2595,0.006,1.467
80.3,0.0172,0.258,0.006,1.467
80.4,0.0172,0.258,0.006,1.4685
80.501,0.0172,0.2565,0.006,1.4685
80.6,0.0172,0.2565,0.006,1.47
80.7,0.0172,0.2565,0.006,1.4715
80.801,0.0172,0.255,0.006,1.473
80.901,0.01715,0.255,0.006,1.4715
81.002,0.0171,0.2535,0.006,1.473
81.1,0.0172,0.2535,0.006,1.4745
81.201,0.0172,0.2535,0.006,1.476
81.3,0.01725,0.252,0.006,1.476
81.4,0.01725,0.252,0.006,1.4775
81.5,0.01725,0.252,0.006,1.4775
81.6,0.01725,0.2505,0.006,1.479
81.701,0.01725,0.2505,0.006,1.4805
81.8,0.01725,0.2505,0.006,1.4805
81.9,0.01735,0.249,0.006,1.482
82,0.0173,0.249,0.006,1.4835
82.1,0.0173,0.2475,0.006,1.4835
82.2,0.0173,0.2475,0.006,1.485
82.3,0.01735,0.2475,0.006,1.485
82.4,0.0172,0.246,0.006,1.485
82.501,0.0172,0.246,0.006,1.4865
82.6,0.0173,0.246,0.006,1.488
82.7,0.0173,0.2445,0.006,1.488
82.8,0.0173,0.2445,0.006,1.4895
82.901,0.0172,0.243,0.006,1.4895
83,0.0173,0.243,0.006,1.4895
83.1,0.0173,0.243,0.006,1.4895
83.201,0.0173,0.243,0.006,1.4925
83.3,0.0173,0.2415,0.006,1.4925
83.4,0.01735,0.2415,0.006,1.494
83.501,0.01735,0.24,0.006,1.4955
83.601,0.01725,0.24,0.006,1.4955
83.7,0.0173,0.24,0.006,1.497
83.8,0.0174,0.24,0.006,1.497
83.9,0.01735,0.2385,0.006,1.497
84,0.0174,0.2385,0.006,1.4985
84.1,0.0174,0.2385,0.006,1.5
84.199,0.0174,0.237,0.006,1.5
84.3,0.01735,0.237,0.006,1.5015
84.4,0.01735,0.237,0.006,1.5015
84.5,0.01735,0.2355,0.006,1.503
84.6,0.0174,0.2355,0.006,1.503
84.7,0.01735,0.2355,0.006,1.5045
84.8,0.01745,0.2355,0.006,1.506
84.9,0.0174,0.234,0.006,1.506
85,0.0174,0.234,0.006,1.5075
85.1,0.0174,0.2325,0.006,1.5075
85.199,0.01745,0.2325,0.0045,1.509
85.3,0.0174,0.2325,0.006,1.509
85.401,0.01735,0.231,0.006,1.5105
85.5,0.0174,0.231,0.006,1.512
85.6,0.01735,0.231,0.006,1.512
85.7,0.0174,0.231,0.006,1.5135
85.801,0.01735,0.2295,0.0045,1.5135
85.9,0.0174,0.2295,0.0045,1.515
86,0.01735,0.228,0.006,1.515
86.1,0.0174,0.228,0.0045,1.5165
86.201,0.0174,0.228,0.006,1.518
86.301,0.01735,0.2265,0.006,1.518
86.4,0.0174,0.2265,0.0045,1.5195
86.5,0.0174,0.2265,0.0045,1.5195
86.6,0.01745,0.225,0.006,1.521
86.7,0.0174,0.225,0.006,1.521
86.8,0.0174,0.225,0.0045,1.5225
86.9,0.0174,0.225,0.0045,1.5225
87,0.0173,0.2235,0.006,1.524
87.1,0.0174,0.2235,0.0045,1.5255
87.2,0.01745,0.2235,0.0045,1.5255
87.3,0.0174,0.222,0.006,1.527
87.401,0.0174,0.222,0.0045,1.527
87.501,0.0174,0.222,0.0045,1.5285
87.599,0.0173,0.2205,0.0045,1.53
87.702,0.01735,0.2205,0.0045,1.53
87.8,0.0173,0.2205,0.0045,1.53
87.9,0.0174,0.219,0.0045,1.5315
88.001,0.01735,0.219,0.0045,1.533
88.1,0.01735,0.219,0.0045,1.533
88.2,0.0173,0.219,0.0045,1.5345
88.3,0.01735,0.2175,0.0045,1.5345
88.401,0.01745,0.2175,0.0045,1.536
88.5,0.01735,0.2175,0.0045,1.536
88.6,0.0173,0.216,0.0045,1.5375
88.7,0.0173,0.216,0.0045,1.536
88.802,0.01735,0.216,0.0045,1.539
88.9,0.0173,0.2145,0.0045,1.539
89,0.0173,0.2145,0.0045,1.5405
89.101,0.0174,0.2145,0.0045,1.5405
89.2,0.0173,0.2145,0.0045,1.542
89.3,0.0173,0.213,0.0045,1.5435
89.4,0.01745,0.213,0.0045,1.5435
89.5,0.01735,0.213,0.0045,1.5435
89.6,0.01735,0.2115,0.0045,1.545
89.7,0.0173,0.2115,0.0045,1.545
89.8,0.0173,0.2115,0.0045,1.5465
89.9,0.0173,0.2115,0.0045,1.5465
90,0.01735,0.21,0.0045,1.548
90.1,0.0173,0.21,0.0045,1.5495
90.2,0.01735,0.21,0.0045,1.551
90.31,0.0173,0.2085,0.0045,1.548
90.4,0.0173,0.2085,0.0045,1.551
90.5,0.0173,0.2085,0.0045,1.551
90.599,0.01735,0.207,0.0045,1.5525
90.7,0.0173,0.207,0.0045,1.554
90.799,0.0173,0.207,0.0045,1.554
90.9,0.0173,0.207,0.0045,1.5555
91,0.01735,0.207,0.0045,1.5555
91.1,0.0173,0.2055,0.0045,1.557
91.2,0.0173,0.2055,0.0045,1.557
91.3,0.0173,0.2055,0.0045,1.557
91.4,0.0173,0.204,0.0045,1.5585
91.5,0.0173,0.204,0.0045,1.5585
91.607,0.01715,0.204,0.0045,1.5615
91.7,0.0173,0.204,0.0045,1.56
91.8,0.0173,0.2025,0.0045,1.563
91.9,0.0173,0.2025,0.0045,1.5615
92,0.0173,0.2025,0.0045,1.563
92.1,0.0173,0.2025,0.0045,1.566
92.2,0.0173,0.201,0.0045,1.566
92.3,0.01735,0.201,0.0045,1.566
92.4,0.01735,0.201,0.0045,1.5675
92.5,0.0173,0.1995,0.0045,1.569
92.6,0.0173,0.1995,0.0045,1.569
92.699,0.0173,0.1995,0.0045,1.5705
92.8,0.0173,0.1995,0.0045,1.5705
92.9,0.01735,0.198,0.0045,1.5705
93,0.0173,0.198,0.0045,1.5705
93.1,0.0173,0.198,0.0045,1.572
93.2,0.0173,0.198,0.0045,1.5735
93.3,0.01735,0.1965,0.0045,1.5735
93.4,0.0173,0.1965,0.0045,1.575
93.5,0.0173,0.1965,0.0045,1.575
93.6,0.0173,0.195,0.0045,1.578
93.7,0.0173,0.195,0.0045,1.5765
93.8,0.0173,0.195,0.0045,1.578
93.899,0.0172,0.195,0.0045,1.5795
94,0.0173,0.1935,0.0045,1.5795
94.1,0.0172,0.1935,0.0045,1.5795
94.2,0.01715,0.1935,0.0045,1.581
94.3,0.0173,0.1935,0.0045,1.5825
94.4,0.01715,0.1935,0.0045,1.5825
94.5,0.01715,0.192,0.0045,1.5825
94.6,0.0173,0.192,0.0045,1.5855
94.7,0.01715,0.192,0.0045,1.584
94.8,0.0173,0.192,0.0045,1.5855
94.9,0.0172,0.1905,0.0045,1.5855
95,0.0173,0.1905,0.0045,1.587
95.1,0.0173,0.1905,0.0045,1.587
95.2,0.01725,0.1905,0.0045,1.5885
95.301,0.01725,0.1905,0.0045,1.5885
95.399,0.0172,0.189,0.0045,1.59
95.5,0.0172,0.189,0.0045,1.59
95.6,0.0172,0.189,0.0045,1.59
95.7,0.0172,0.1875,0.0045,1.596
95.8,0.0172,0.1875,0.0045,1.5915
95.9,0.0171,0.1875,0.0045,1.593
96.009,0.01725,0.1875,0.0045,1.5975
96.1,0.01725,0.186,0.0045,1.5945
96.2,0.0171,0.186,0.0045,1.596
96.3,0.01715,0.186,0.0045,1.596
96.4,0.01725,0.186,0.0045,1.5975
96.501,0.01715,0.186,0.0045,1.599
96.6,0.01715,0.1845,0.0045,1.599
96.7,0.01715,0.1845,0.0045,1.599
96.8,0.0172,0.1845,0.0045,1.602
96.9,0.0172,0.1845,0.0045,1.6005
97,0.01715,0.183,0.0045,1.6035
97.101,0.0172,0.183,0.0045,1.6035
97.2,0.0173,0.183,0.0045,1.6035
97.3,0.0172,0.183,0.0045,1.6065
97.4,0.0172,0.1815,0.0045,1.605
97.5,0.0173,0.1815,0.0045,1.6065
97.601,0.0173,0.1815,0.0045,1.611
97.7,0.0173,0.1815,0.0045,1.608
97.799,0.0173,0.1815,0.0045,1.608
97.901,0.01715,0.18,0.0045,1.6095
98,0.01715,0.18,0.003,1.6125
98.101,0.01715,0.18,0.0045,1.6125
98.2,0.01715,0.18,0.003,1.6125
98.3,0.01725,0.18,0.0045,1.6125
98.4,0.01735,0.1785,0.0045,1.614
98.501,0.0173,0.1785,0.0045,1.617
98.6,0.01725,0.1785,0.003,1.614
98.7,0.0173,0.1785,0.0045,1.6155
98.8,0.0173,0.177,0.0045,1.617
98.901,0.0173,0.177,0.0045,1.617
99,0.0173,0.177,0.0045,1.6185
99.1,0.0173,0.177,0.0045,1.6185
99.2,0.0173,0.177,0.0045,1.62
99.3,0.01735,0.1755,0.003,1.62
99.401,0.0173,0.1755,0.003,1.6215
99.5,0.0173,0.1755,0.0045,1.623
99.6,0.0173,0.1755,0.003,1.623
99.7,0.0174,0.174,0.0045,1.6245
99.8,0.0174,0.174,0.0045,1.6245
99.9,0.0173,0.174,0.003,1.626
100,0.01735,0.174,0.0045,1.626
100.101,0.01725,0.174,0.0045,1.6275
100.201,0.01715,0.1725,0.003,1.629
100.3,0.0174,0.1725,0.0045,1.629
100.401,0.0173,0.1725,0.003,1.6305
100.501,0.0173,0.1725,0.0045,1.6305
100.6,0.01735,0.1725,0.003,1.6305
100.701,0.0173,0.171,0.003,1.632
100.799,0.01735,0.171,0.0045,1.632
100.9,0.01745,0.171,0.0045,1.632
101,0.0174,0.171,0.0045,1.632
101.099,0.0174,0.1695,0.0045,1.632
101.2,0.0174,0.1695,0.0045,1.632
101.3,0.01735,0.1695,0.003,1.632
101.401,0.0174,0.1695,0.003,1.6335
101.5,0.01725,0.1695,0.003,1.6335
101.6,0.0174,0.1695,0.0045,1.6335
101.699,0.0174,0.1695,0.003,1.6335
101.801,0.0173,0.1695,0.003,1.632
101.9,0.0174,0.168,0.0045,1.632
102,0.0174,0.168,0.0045,1.632
102.099,0.0173,0.168,0.003,1.632
102.2,0.0174,0.168,0.0045,1.632
102.3,0.0174,0.168,0.0045,1.632
102.4,0.0174,0.168,0.0045,1.632
102.499,0.01735,0.168,0.0045,1.632
102.6,0.0174,0.168,0.003,1.632
102.701,0.0174,0.168,0.003,1.6305
102.799,0.01735,0.168,0.003,1.6305
102.901,0.0174,0.168,0.0045,1.6305
103,0.0174,0.168,0.0045,1.6305
103.1,0.0174,0.168,0.0045,1.629
103.2,0.01735,0.168,0.0045,1.629
103.3,0.0173,0.168,0.0045,1.629
103.4,0.01735,0.168,0.0045,1.629
103.499,0.0173,0.168,0.003,1.6275
103.602,0.0174,0.168,0.0045,1.6275
103.7,0.0174,0.168,0.003,1.626
103.8,0.0173,0.168,0.0045,1.626
103.9,0.0173,0.168,0.003,1.626
104,0.0173,0.168,0.003,1.626
104.099,0.0173,0.168,0.0045,1.626
104.2,0.0173,0.168,0.003,1.6245
104.3,0.0174,0.1695,0.0045,1.6245
104.399,0.01735,0.168,0.0045,1.623
104.5,0.0173,0.1695,0.0045,1.6245
104.6,0.0173,0.1695,0.003,1.623
104.7,0.0173,0.1695,0.0045,1.623
104.8,0.01735,0.1695,0.0045,1.6215
104.9,0.01735,0.1695,0.0045,1.6215
104.999,0.0173,0.1695,0.003,1.6215
105.1,0.0173,0.1695,0.0045,1.6215
105.2,0.0173,0.1695,0.003,1.62
105.3,0.0173,0.1695,0.0045,1.6185
105.399,0.0173,0.1695,0.003,1.62
105.5,0.0173,0.1695,0.0045,1.6185
105.6,0.0173,0.171,0.003,1.617
105.7,0.0173,0.171,0.003,1.6185
105.8,0.0173,0.171,0.0045,1.617
105.899,0.0173,0.171,0.003,1.617
105.999,0.01725,0.171,0.0045,1.617
106.1,0.0173,0.171,0.0045,1.6155
106.2,0.0173,0.171,0.0045,1.6155
106.3,0.0173,0.171,0.0045,1.614
106.399,0.0173,0.1725,0.0045,1.614
106.5,0.01735,0.1725,0.0045,1.6125
106.6,0.0173,0.1725,0.003,1.611
106.701,0.0173,0.1725,0.0045,1.611
106.8,0.0173,0.1725,0.0045,1.611
106.9,0.0173,0.1725,0.0045,1.6095
107,0.0173,0.1725,0.0045,1.611
107.1,0.0173,0.1725,0.0045,1.6095
107.2,0.0173,0.174,0.0045,1.6095
107.3,0.01725,0.174,0.0045,1.6095
107.4,0.0173,0.174,0.0045,1.608
107.5,0.0173,0.174,0.0045,1.608
107.601,0.01725,0.174,0.0045,1.6065
107.7,0.01725,0.174,0.0045,1.605
107.8,0.0173,0.174,0.0045,1.6065
107.9,0.0173,0.174,0.0045,1.605
108,0.0173,0.1755,0.0045,1.605
108.1,0.0173,0.1755,0.0045,1.605
108.2,0.0173,0.1755,0.0045,1.6035
108.3,0.0173,0.1755,0.0045,1.6035
108.4,0.0173,0.1755,0.0045,1.602
108.5,0.0173,0.1755,0.0045,1.6035
108.6,0.0173,0.177,0.0045,1.602
108.7,0.0173,0.177,0.0045,1.602
108.8,0.0173,0.177,0.0045,1.599
108.899,0.0173,0.177,0.0045,1.6005
109,0.0173,0.177,0.0045,1.599
109.1,0.0173,0.177,0.0045,1.599
109.2,0.0173,0.177,0.0045,1.5975
109.3,0.0173,0.1785,0.0045,1.596
109.4,0.0173,0.1785,0.0045,1.5975
109.5,0.0173,0.1785,0.0045,1.596
109.6,0.0173,0.1785,0.0045,1.5945
109.7,0.0173,0.18,0.0045,1.593
109.8,0.01725,0.1785,0.0045,1.596
109.9,0.0173,0.18,0.0045,1.593
109.999,0.01725,0.18,0.0045,1.5945
110.1,0.0173,0.18,0.0045,1.593
110.2,0.0173,0.18,0.0045,1.593
110.3,0.01715,0.18,0.0045,1.593
110.4,0.01725,0.1815,0.0045,1.5915
110.5,0.01715,0.1815,0.0045,1.5885
110.6,0.01715,0.1815,0.0045,1.5915
110.7,0.01715,0.1815,0.0045,1.5885
110.8,0.0173,0.1815,0.0045,1.59
110.9,0.01715,0.1815,0.0045,1.59
111,0.01715,0.1815,0.0045,1.5885
111.101,0.0173,0.183,0.0045,1.5855
111.2,0.01725,0.183,0.0045,1.587
111.3,0.01715,0.183,0.0045,1.587
111.4,0.0172,0.183,0.0045,1.5855
111.5,0.0172,0.183,0.0045,1.5855
111.6,0.0172,0.183,0.0045,1.5855
111.7,0.0172,0.1845,0.0045,1.584
111.8,0.0172,0.1845,0.0045,1.5855
111.9,0.01725,0.1845,0.0045,1.584
112,0.01725,0.1845,0.0045,1.584
112.1,0.01715,0.1845,0.0045,1.581
112.2,0.01715,0.186,0.0045,1.581
112.3,0.01725,0.186,0.0045,1.581
112.405,0.0173,0.186,0.0045,1.578
112.5,0.01715,0.186,0.0045,1.5795
112.6,0.01715,0.186,0.0045,1.5795
112.7,0.0172,0.1875,0.0045,1.578
112.8,0.0172,0.1875,0.0045,1.5795
112.899,0.0173,0.1875,0.0045,1.578
113,0.0172,0.1875,0.0045,1.5765
113.1,0.0172,0.1875,0.0045,1.5765
113.2,0.0172,0.1875,0.0045,1.5765
113.3,0.01725,0.189,0.0045,1.5765
113.4,0.0173,0.189,0.0045,1.575
113.5,0.01735,0.189,0.0045,1.575
113.6,0.01725,0.189,0.0045,1.575
113.7,0.0173,0.189,0.0045,1.5735
113.8,0.01735,0.1905,0.003,1.572
113.901,0.0173,0.1905,0.0045,1.572
114,0.0173,0.1905,0.0045,1.572
114.1,0.0173,0.1905,0.0045,1.5705
114.201,0.0173,0.1905,0.0045,1.5705
114.3,0.0173,0.1905,0.0045,1.569
114.4,0.0173,0.192,0.0045,1.569
114.499,0.0174,0.192,0.0045,1.5675
114.6,0.01735,0.192,0.0045,1.5675
114.7,0.01735,0.192,0.0045,1.566
114.8,0.0173,0.192,0.0045,1.566
114.901,0.01735,0.192,0.0045,1.566
115,0.01735,0.1935,0.0045,1.566
115.1,0.01735,0.1935,0.0045,1.5645
115.2,0.0174,0.1935,0.0045,1.563
115.3,0.01735,0.1935,0.0045,1.563
115.399,0.01745,0.1935,0.0045,1.5615
115.5,0.01735,0.195,0.0045,1.5615
115.6,0.01745,0.195,0.0045,1.5615
115.7,0.01735,0.195,0.0045,1.56
115.8,0.0174,0.195,0.0045,1.56
115.9,0.01735,0.195,0.0045,1.56
116,0.0174,0.1965,0.0045,1.5585
116.1,0.0174,0.1965,0.0045,1.5585
116.2,0.0174,0.1965,0.0045,1.557
116.3,0.0174,0.1965,0.0045,1.557
116.401,0.0174,0.1965,0.0045,1.5555
116.499,0.0173,0.198,0.0045,1.5555
116.599,0.0174,0.198,0.0045,1.5555
116.699,0.0174,0.198,0.0045,1.554
116.8,0.01735,0.198,0.0045,1.554
116.9,0.01735,0.198,0.0045,1.5525
117,0.0173,0.1995,0.0045,1.5525
117.1,0.01745,0.1995,0.0045,1.5525
117.2,0.01745,0.1995,0.0045,1.551
117.303,0.01725,0.1995,0.0045,1.551
117.4,0.0174,0.1995,0.0045,1.5495
117.5,0.0174,0.201,0.0045,1.5495
117.6,0.0174,0.201,0.0045,1.548
117.7,0.01735,0.201,0.0045,1.548
117.8,0.0174,0.201,0.0045,1.548
117.9,0.01735,0.201,0.0045,1.5465
118,0.01735,0.2025,0.0045,1.5465
118.1,0.0173,0.2025,0.0045,1.545
118.2,0.01735,0.2025,0.0045,1.545
118.3,0.01735,0.2025,0.0045,1.5435
118.4,0.0173,0.2025,0.0045,1.5435
118.5,0.0173,0.204,0.0045,1.542
118.6,0.0173,0.204,0.0045,1.542
118.7,0.0173,0.204,0.0045,1.5405
118.8,0.0173,0.204,0.0045,1.5405
118.9,0.0173,0.204,0.0045,1.539
118.999,0.0173,0.2055,0.0045,1.5375
119.1,0.0173,0.2055,0.0045,1.5375
119.2,0.0173,0.2055,0.0045,1.5375
119.3,0.0173,0.2055,0.0045,1.5375
119.399,0.0173,0.2055,0.0045,1.536
119.499,0.01735,0.207,0.0045,1.536
119.599,0.0173,0.207,0.0045,1.5345
119.699,0.0173,0.207,0.0045,1.5345
119.8,0.0173,0.207,0.0045,1.5345
119.9,0.0173,0.2085,0.0045,1.533
119.999,0.0173,0.2085,0.0045,1.5315
120.1,0.01735,0.2085,0.0045,1.5315
120.199,0.01735,0.2085,0.0045,1.5315
120.3,0.0173,0.21,0.0045,1.5315
120.4,0.0173,0.21,0.0045,1.53
120.5,0.0173,0.21,0.0045,1.53
120.6,0.0173,0.21,0.0045,1.5285
120.7,0.0173,0.21,0.0045,1.5285
120.8,0.01735,0.2115,0.0045,1.527
120.899,0.01715,0.2115,0.0045,1.5255
120.999,0.0173,0.2115,0.0045,1.5255
121.101,0.0173,0.2115,0.0045,1.5255
121.199,0.01715,0.2115,0.0045,1.524
121.299,0.01735,0.213,0.0045,1.5225
121.399,0.01725,0.213,0.0045,1.5225
121.5,0.0173,0.213,0.0045,1.521
121.599,0.01725,0.213,0.0045,1.521
121.699,0.0172,0.213,0.0045,1.521
121.8,0.0172,0.2145,0.0045,1.5195
121.9,0.01715,0.2145,0.0045,1.5195
122,0.0173,0.2145,0.0045,1.5195
122.1,0.0173,0.2145,0.0045,1.518
122.2,0.0173,0.216,0.0045,1.518
122.3,0.0173,0.216,0.0045,1.5165
122.399,0.01715,0.216,0.0045,1.515
122.5,0.0173,0.216,0.0045,1.515
122.6,0.0172,0.2175,0.0045,1.515
122.7,0.0172,0.2175,0.0045,1.5135
122.8,0.0172,0.2175,0.0045,1.5135
122.9,0.01715,0.2175,0.0045,1.5135
123.001,0.0173,0.2175,0.0045,1.5135
123.1,0.0171,0.2175,0.006,1.512
123.2,0.0172,0.219,0.0045,1.512
123.3,0.01715,0.219,0.0045,1.5105
123.4,0.01715,0.219,0.0045,1.5105
123.5,0.01715,0.2205,0.006,1.509
123.6,0.01725,0.2205,0.0045,1.5075
123.7,0.01715,0.2205,0.0045,1.5075
123.8,0.0172,0.2205,0.0045,1.5075
123.899,0.0172,0.2205,0.006,1.5075
124.001,0.01725,0.222,0.006,1.506
124.1,0.0172,0.222,0.0045,1.5045
124.2,0.0173,0.222,0.006,1.5045
124.3,0.01735,0.222,0.006,1.5045
124.4,0.01735,0.222,0.006,1.503
124.5,0.01725,0.2235,0.006,1.503
124.6,0.01725,0.2235,0.0045,1.5015
124.699,0.01735,0.2235,0.006,1.5015
124.8,0.0173,0.2235,0.0045,1.5015
124.9,0.01735,0.225,0.0045,1.5015
125,0.0173,0.225,0.006,1.5
125.1,0.01715,0.225,0.0045,1.5
125.2,0.0173,0.225,0.006,1.4985
125.3,0.0174,0.225,0.006,1.4985
125.401,0.01735,0.2265,0.006,1.497
125.5,0.0173,0.2265,0.006,1.497
125.6,0.0174,0.2265,0.0045,1.497
125.701,0.01735,0.228,0.006,1.4955
125.799,0.0174,0.228,0.006,1.4955
125.901,0.01735,0.228,0.006,1.494
126.001,0.0173,0.228,0.0045,1.494
126.099,0.0174,0.228,0.006,1.4925
126.2,0.0174,0.2295,0.006,1.4925
126.301,0.01735,0.2295,0.006,1.4925
126.4,0.0174,0.2295,0.006,1.491
126.5,0.0174,0.2295,0.006,1.491
126.6,0.01745,0.2295,0.006,1.4895
126.7,0.0174,0.231,0.006,1.4895
126.799,0.0173,0.231,0.006,1.4895
126.899,0.0173,0.231,0.006,1.4895
127.001,0.01745,0.231,0.006,1.488
127.101,0.0174,0.2325,0.006,1.488
127.2,0.0174,0.2325,0.006,1.4865
127.3,0.01745,0.2325,0.006,1.4865
127.4,0.0174,0.2325,0.006,1.4865
127.5,0.0173,0.234,0.006,1.4865
127.601,0.0174,0.234,0.006,1.485
127.701,0.0174,0.234,0.006,1.4835
127.801,0.0174,0.234,0.006,1.4835
127.9,0.0174,0.234,0.006,1.4835
128,0.0173,0.2355,0.006,1.4835
128.1,0.0173,0.2355,0.006,1.4835
128.199,0.0173,0.2355,0.006,1.482
128.3,0.01735,0.237,0.006,1.4805
128.401,0.0174,0.237,0.006,1.479
128.501,0.01735,0.237,0.006,1.479
128.6,0.0173,0.2385,0.006,1.479
128.7,0.0173,0.2385,0.006,1.4775
128.8,0.0173,0.2385,0.006,1.4775
128.9,0.0173,0.2385,0.006,1.479
129.001,0.0173,0.24,0.006,1.4775
129.101,0.0173,0.24,0.006,1.476
129.2,0.01735,0.24,0.006,1.476
129.3,0.0173,0.24,0.006,1.476
129.4,0.0173,0.24,0.006,1.4745
129.5,0.0173,0.2415,0.006,1.4745
129.6,0.0173,0.2415,0.006,1.4745
129.7,0.0173,0.2415,0.006,1.4745
129.8,0.0173,0.2415,0.006,1.473
129.9,0.0173,0.2415,0.006,1.4715
130,0.0173,0.243,0.006,1.4715
130.1,0.0173,0.243,0.006,1.4715
130.201,0.0173,0.243,0.006,1.4715
130.3,0.0173,0.243,0.006,1.4715
130.401,0.0173,0.2445,0.006,1.47
130.501,0.0173,0.2445,0.006,1.47
130.599,0.0173,0.2445,0.006,1.47
130.7,0.0173,0.2445,0.006,1.467
130.8,0.01735,0.246,0.006,1.467
130.9,0.0173,0.246,0.006,1.4685
131,0.0173,0.246,0.006,1.467
131.1,0.0173,0.246,0.006,1.467
131.199,0.0173,0.246,0.006,1.467
131.3,0.0173,0.2475,0.006,1.4655
131.401,0.0173,0.2475,0.006,1.4655
131.5,0.01725,0.2475,0.006,1.4655
131.601,0.0173,0.249,0.006,1.464
131.701,0.0173,0.249,0.006,1.4625
131.8,0.01715,0.249,0.006,1.4625
131.9,0.0173,0.249,0.006,1.4625
132,0.01715,0.2505,0.006,1.4625
132.099,0.0171,0.2505,0.006,1.4625
132.199,0.01715,0.2505,0.006,1.461
132.3,0.0173,0.2505,0.006,1.4595
132.4,0.01725,0.252,0.006,1.4595
132.501,0.0173,0.252,0.006,1.458
132.6,0.0172,0.252,0.006,1.458
132.7,0.01715,0.252,0.006,1.458
132.801,0.0173,0.2535,0.006,1.4565
132.9,0.01715,0.2535,0.006,1.4565
133,0.01715,0.2535,0.006,1.4565
133.1,0.01715,0.2535,0.006,1.4565
133.2,0.01725,0.255,0.006,1.455
133.3,0.0173,0.255,0.006,1.455
133.401,0.0172,0.255,0.006,1.4535
133.5,0.0172,0.255,0.006,1.4535
133.6,0.0173,0.255,0.006,1.4535
133.699,0.0173,0.2565,0.006,1.452
133.799,0.0173,0.2565,0.006,1.452
133.9,0.01735,0.2565,0.006,1.452
134,0.01735,0.258,0.006,1.4505
134.1,0.01725,0.258,0.006,1.4505
134.2,0.01735,0.258,0.006,1.449
134.301,0.0173,0.258,0.006,1.449
134.401,0.0173,0.2595,0.006,1.449
134.5,0.0173,0.2595,0.006,1.4475
134.6,0.01735,0.2595,0.006,1.4475
134.699,0.0174,0.2595,0.006,1.446
134.8,0.01735,0.261,0.006,1.446
134.899,0.0174,0.261,0.006,1.4445
135,0.0174,0.261,0.006,1.4445
135.099,0.0174,0.2625,0.006,1.4445
135.201,0.01735,0.2625,0.006,1.443
135.3,0.01735,0.2625,0.006,1.443
135.4,0.01735,0.2625,0.006,1.443
135.5,0.01735,0.264,0.006,1.4415
135.599,0.0174,0.264,0.006,1.4415
135.7,0.01735,0.264,0.006,1.4415
135.8,0.01735,0.264,0.006,1.44
135.9,0.0174,0.2655,0.006,1.44
136,0.0174,0.2655,0.006,1.44
136.101,0.01735,0.2655,0.006,1.4385
136.2,0.0174,0.2655,0.006,1.4385
136.3,0.0174,0.267,0.006,1.4385
136.4,0.01745,0.267,0.006,1.437
136.501,0.0171,0.267,0.006,1.437
136.603,0.01725,0.2685,0.006,1.437
136.7,0.0174,0.2685,0.006,1.4355
136.801,0.0174,0.2685,0.006,1.4355
136.901,0.0174,0.2685,0.006,1.434
137,0.0174,0.27,0.006,1.434
137.1,0.0173,0.27,0.006,1.4325
137.2,0.0174,0.27,0.006,1.4325
137.3,0.0174,0.27,0.006,1.431
137.4,0.01735,0.2715,0.006,1.431
137.5,0.01735,0.2715,0.006,1.4295
137.601,0.01745,0.2715,0.006,1.431
137.7,0.0173,0.273,0.006,1.428
137.801,0.01745,0.273,0.006,1.4295
137.9,0.0173,0.273,0.006,1.428
138.001,0.0174,0.273,0.006,1.428
138.101,0.0174,0.2745,0.006,1.4265
138.201,0.0174,0.2745,0.006,1.4265
138.3,0.0173,0.2745,0.006,1.425
138.4,0.0173,0.276,0.006,1.425
138.5,0.0173,0.276,0.006,1.425
138.601,0.01735,0.276,0.006,1.425
138.7,0.0173,0.276,0.006,1.4235
138.8,0.0173,0.276,0.006,1.422
138.9,0.0173,0.2775,0.006,1.4205
139,0.0173,0.2775,0.006,1.419
139.1,0.01735,0.2775,0.006,1.4205
139.201,0.0173,0.2775,0.006,1.4205
139.302,0.0173,0.279,0.006,1.419
139.4,0.0173,0.279,0.006,1.419
139.501,0.0173,0.279,0.006,1.4175
139.6,0.0173,0.2805,0.006,1.4175
139.701,0.0173,0.2805,0.006,1.416
139.8,0.0173,0.2805,0.006,1.416
139.9,0.01735,0.282,0.006,1.4145
140,0.0173,0.282,0.0075,1.4145
140.1,0.0173,0.282,0.006,1.413
140.2,0.0173,0.282,0.0075,1.413
140.299,0.0173,0.2835,0.0075,1.4115
140.4,0.0173,0.2835,0.0075,1.4115
140.501,0.0173,0.2835,0.0075,1.4115
140.6,0.0173,0.285,0.006,1.41
140.7,0.0173,0.285,0.0075,1.4085
140.8,0.0173,0.285,0.0075,1.4085
140.9,0.01735,0.285,0.0075,1.41
141,0.0173,0.2865,0.006,1.4085
141.1,0.0173,0.2865,0.006,1.407
141.201,0.0173,0.2865,0.006,1.407
141.3,0.0173,0.288,0.0075,1.407
141.401,0.0173,0.288,0.0075,1.407
141.5,0.0173,0.288,0.0075,1.404
141.6,0.0171,0.288,0.0075,1.404
141.701,0.0173,0.2895,0.0075,1.404
141.8,0.01715,0.2895,0.0075,1.4025
141.901,0.0173,0.2895,0.0075,1.4025
142,0.0173,0.2895,0.0075,1.401
142.1,0.0172,0.2895,0.0075,1.401
142.2,0.0172,0.291,0.0075,1.401
142.3,0.0172,0.291,0.0075,1.3995
142.4,0.01715,0.291,0.0075,1.3995
142.501,0.01715,0.2925,0.0075,1.4025
142.602,0.0173,0.2925,0.0075,1.398
142.7,0.0173,0.2925,0.0075,1.398
142.8,0.01715,0.294,0.0075,1.398
142.9,0.01715,0.294,0.0075,1.3965
143,0.01725,0.294,0.0075,1.395
143.1,0.01715,0.2955,0.0075,1.3965
143.2,0.0172,0.2955,0.0075,1.395
143.3,0.0172,0.2955,0.0075,1.3935
143.4,0.0172,0.2955,0.0075,1.3935
143.5,0.0173,0.297,0.0075,1.3935
143.6,0.0173,0.297,0.0075,1.392
143.699,0.01735,0.297,0.0075,1.392
143.799,0.0173,0.2985,0.0075,1.392
143.9,0.01725,0.2985,0.0075,1.3905
144.001,0.0173,0.2985,0.0075,1.3905
144.101,0.01715,0.2985,0.0075,1.3905
144.2,0.0173,0.3,0.0075,1.389
144.299,0.01735,0.3,0.0075,1.389
144.399,0.01735,0.3,0.0075,1.3875
144.5,0.0173,0.3015,0.0075,1.3875
144.6,0.01735,0.3015,0.0075,1.3875
144.701,0.0173,0.3015,0.0075,1.386
144.799,0.01735,0.303,0.0075,1.386
144.9,0.01735,0.303,0.0075,1.386
145,0.01735,0.303,0.0075,1.3845
145.1,0.0173,0.303,0.0075,1.3845
145.199,0.01735,0.3045,0.0075,1.3845
145.3,0.0174,0.3045,0.0075,1.383
145.4,0.0174,0.3045,0.0075,1.383
145.501,0.01735,0.306,0.0075,1.383
145.6,0.01735,0.306,0.0075,1.3815
145.7,0.0174,0.306,0.0075,1.3815
145.799,0.01735,0.3075,0.0075,1.3815
145.899,0.01735,0.3075,0.0075,1.38
146,0.0174,0.3075,0.0075,1.38
146.1,0.0174,0.3075,0.0075,1.3785
146.201,0.0174,0.309,0.0075,1.3785
146.3,0.01735,0.309,0.0075,1.3785
146.4,0.0174,0.309,0.0075,1.377
146.5,0.0174,0.3105,0.0075,1.377
146.6,0.0174,0.3105,0.0075,1.377
146.7,0.0174,0.3105,0.0075,1.3755
146.799,0.0174,0.312,0.0075,1.3755
146.899,0.01735,0.312,0.0075,1.3755
147,0.01735,0.312,0.0075,1.374
147.1,0.0173,0.3135,0.0075,1.374
147.2,0.0173,0.3135,0.0075,1.374
147.3,0.0174,0.3135,0.0075,1.3725
147.4,0.0173,0.315,0.0075,1.3725
147.499,0.01725,0.315,0.0075,1.3725
147.6,0.0174,0.315,0.0075,1.371
147.7,0.0174,0.3165,0.0075,1.3725
147.8,0.0174,0.3165,0.0075,1.3695
147.9,0.0174,0.3165,0.0075,1.3695
148,0.0173,0.3165,0.0075,1.3695
148.1,0.0173,0.318,0.009,1.368
148.2,0.0173,0.318,0.0075,1.3695
148.3,0.0173,0.318,0.0075,1.3695
148.4,0.0173,0.3195,0.009,1.3665
148.5,0.0173,0.3195,0.009,1.3665
148.6,0.0173,0.3195,0.0075,1.368
148.7,0.0173,0.321,0.009,1.3665
148.8,0.0173,0.321,0.0075,1.365
148.9,0.0173,0.321,0.0075,1.365
149,0.0173,0.3225,0.009,1.365
149.101,0.0174,0.3225,0.009,1.3635
149.2,0.0173,0.3225,0.009,1.3635
149.3,0.0173,0.324,0.009,1.3635
149.399,0.0173,0.324,0.009,1.3635
149.501,0.0173,0.324,0.009,1.362
149.599,0.0173,0.3255,0.0075,1.3635
149.7,0.0173,0.3255,0.009,1.3605
149.8,0.0173,0.3255,0.009,1.359
149.9,0.0173,0.327,0.009,1.359
150.001,0.01735,0.327,0.009,1.359
150.1,0.0173,0.327,0.009,1.359
150.2,0.0173,0.327,0.009,1.359
150.3,0.0173,0.3285,0.009,1.359
150.4,0.0173,0.3285,0.0075,1.3575
150.499,0.0173,0.33,0.009,1.3575
150.599,0.0173,0.33,0.009,1.3575
150.7,0.0173,0.33,0.009,1.356
150.8,0.0173,0.33,0.009,1.356
150.901,0.0173,0.3315,0.009,1.356
151,0.0173,0.3315,0.009,1.3545
151.1,0.0173,0.3315,0.009,1.3545
151.2,0.0173,0.333,0.009,1.353
151.301,0.0173,0.333,0.009,1.353
151.4,0.0173,0.333,0.009,1.353
151.5,0.0173,0.3345,0.009,1.353
151.6,0.0173,0.3345,0.0075,1.3515
151.7,0.0173,0.3345,0.009,1.3515
151.8,0.0173,0.336,0.009,1.3515
151.9,0.0173,0.336,0.009,1.3515
152,0.0173,0.336,0.009,1.35
152.1,0.0173,0.336,0.009,1.35
152.2,0.0172,0.3375,0.009,1.35
152.299,0.0172,0.3375,0.009,1.35
152.4,0.0172,0.3375,0.009,1.3485
152.5,0.01715,0.339,0.009,1.3485
152.6,0.0171,0.339,0.009,1.3485
152.699,0.01715,0.339,0.009,1.347
152.801,0.0173,0.3405,0.009,1.3455
152.9,0.0173,0.3405,0.009,1.3455
153,0.01715,0.3405,0.009,1.3455
153.1,0.0173,0.342,0.009,1.3455
153.2,0.0173,0.342,0.009,1.3455
153.3,0.0173,0.342,0.009,1.344
153.4,0.01725,0.342,0.009,1.344
153.499,0.01715,0.3435,0.009,1.344
153.601,0.01715,0.3435,0.009,1.3425
153.7,0.0173,0.3435,0.009,1.3425
153.8,0.01715,0.345,0.009,1.341
153.901,0.0173,0.345,0.009,1.341
154.001,0.0173,0.345,0.009,1.3395
154.1,0.0173,0.3465,0.009,1.341
154.2,0.01725,0.3465,0.009,1.341
154.299,0.01725,0.3465,0.009,1.341
154.401,0.01715,0.348,0.009,1.3395
154.5,0.01725,0.348,0.009,1.3395
154.6,0.0173,0.348,0.009,1.338
154.699,0.01735,0.3495,0.009,1.338
154.799,0.01735,0.3495,0.009,1.3365
154.9,0.0173,0.3495,0.009,1.3365
154.999,0.01735,0.351,0.009,1.3365
155.099,0.0173,0.351,0.009,1.335
155.2,0.01725,0.3525,0.009,1.335
155.299,0.01735,0.3525,0.009,1.335
155.401,0.01715,0.3525,0.009,1.3335
155.501,0.01715,0.3525,0.009,1.3335
155.6,0.0173,0.354,0.009,1.3335
155.7,0.01715,0.354,0.009,1.332
155.8,0.0173,0.3555,0.009,1.332
155.9,0.0173,0.3555,0.009,1.332
155.999,0.0173,0.3555,0.009,1.3305
156.1,0.0172,0.357,0.009,1.3305
156.2,0.0173,0.357,0.009,1.326
156.301,0.01725,0.357,0.009,1.329
156.401,0.01725,0.357,0.009,1.329
156.5,0.0173,0.3585,0.009,1.329
156.6,0.0174,0.3585,0.009,1.3275
156.7,0.01735,0.36,0.009,1.3275
156.8,0.0174,0.36,0.009,1.326
156.9,0.0173,0.36,0.009,1.326
157.001,0.0173,0.3615,0.009,1.326
157.1,0.01735,0.3615,0.009,1.3245
157.2,0.01735,0.3615,0.009,1.3245
157.3,0.0173,0.363,0.009,1.3245
157.4,0.01735,0.363,0.009,1.3245
157.5,0.0174,0.363,0.009,1.323
157.6,0.0174,0.3645,0.009,1.3215
157.701,0.01735,0.3645,0.009,1.323
157.8,0.0174,0.3645,0.009,1.3215
157.9,0.0174,0.366,0.009,1.32
158.001,0.01735,0.366,0.009,1.32
158.1,0.0174,0.3675,0.009,1.32
158.2,0.0174,0.3675,0.009,1.32
158.3,0.01735,0.3675,0.009,1.3185
158.399,0.0173,0.369,0.009,1.317
158.499,0.0173,0.369,0.009,1.3155
158.599,0.0173,0.369,0.009,1.317
158.701,0.0174,0.3705,0.009,1.317
158.8,0.0174,0.3705,0.009,1.317
158.9,0.0174,0.3705,0.009,1.3155
159,0.0173,0.372,0.009,1.314
159.1,0.0173,0.372,0.009,1.314
159.2,0.01735,0.372,0.009,1.314
159.3,0.0173,0.3735,0.009,1.314
159.4,0.01735,0.3735,0.009,1.3125
159.501,0.01745,0.3735,0.009,1.3125
159.6,0.0173,0.375,0.009,1.311
159.701,0.0174,0.375,0.009,1.3125
159.8,0.0174,0.3765,0.009,1.311
159.9,0.0173,0.3765,0.009,1.3095
160,0.0173,0.3765,0.009,1.3095
160.101,0.01735,0.378,0.009,1.3095
160.2,0.0173,0.378,0.009,1.3095
160.3,0.0173,0.378,0.009,1.3065
160.4,0.0173,0.3795,0.009,1.308
160.5,0.0173,0.3795,0.009,1.3065
160.6,0.0173,0.3795,0.009,1.3065
160.7,0.0173,0.381,0.009,1.305
160.8,0.01725,0.381,0.009,1.305
160.9,0.0173,0.381,0.009,1.305
161,0.0173,0.3825,0.0105,1.3035
161.101,0.0173,0.3825,0.009,1.302
161.2,0.0173,0.384,0.009,1.302
161.301,0.0173,0.384,0.009,1.3035
161.4,0.0173,0.384,0.009,1.3005
161.5,0.0173,0.384,0.0105,1.299
161.6,0.0173,0.3855,0.009,1.299
161.699,0.0172,0.3855,0.0105,1.2975
161.801,0.0173,0.387,0.0105,1.299
161.9,0.0173,0.387,0.0105,1.2975
162,0.0173,0.387,0.009,1.2975
162.1,0.0173,0.3885,0.0105,1.2975
162.201,0.0173,0.3885,0.0105,1.2975
162.3,0.0173,0.3885,0.0105,1.296
162.401,0.0173,0.39,0.0105,1.296
162.5,0.0173,0.39,0.0105,1.296
162.6,0.0173,0.39,0.0105,1.2945
162.701,0.0173,0.3915,0.0105,1.2945
162.8,0.0173,0.3915,0.0105,1.293
162.9,0.0173,0.393,0.0105,1.293
163,0.01715,0.393,0.0105,1.2915
163.1,0.01725,0.393,0.0105,1.293
163.2,0.0173,0.3945,0.0105,1.293
163.3,0.0173,0.3945,0.0105,1.29
163.4,0.01715,0.3945,0.0105,1.29
163.5,0.01725,0.396,0.0105,1.29
163.6,0.0172,0.396,0.0105,1.2885
163.7,0.0172,0.396,0.0105,1.2885
163.799,0.0172,0.3975,0.0105,1.287
163.899,0.01725,0.3975,0.0105,1.287
164.001,0.01715,0.399,0.0105,1.287
164.099,0.01735,0.399,0.0105,1.2855
164.2,0.01725,0.399,0.0105,1.2855
164.3,0.01715,0.4005,0.0105,1.284
164.401,0.01715,0.4005,0.0105,1.284
164.5,0.01715,0.4005,0.0105,1.2885
164.599,0.0172,0.402,0.0105,1.2825
164.7,0.0172,0.402,0.0105,1.2825
164.802,0.01715,0.4035,0.0105,1.2825
164.9,0.0172,0.4035,0.0105,1.281
165,0.0173,0.4035,0.0105,1.281
165.101,0.01725,0.405,0.0105,1.281
165.2,0.01725,0.405,0.0105,1.2795
165.3,0.01725,0.405,0.0105,1.2795
165.4,0.0173,0.4065,0.0105,1.2795
165.499,0.01735,0.4065,0.0105,1.2795
165.6,0.0173,0.408,0.0105,1.278
165.7,0.0173,0.408,0.0105,1.278
165.799,0.0174,0.408,0.0105,1.278
165.9,0.01735,0.4095,0.0105,1.2765
166,0.01735,0.4095,0.0105,1.2765
166.1,0.01735,0.4095,0.0105,1.2765
166.2,0.0173,0.411,0.0105,1.275
166.301,0.01725,0.411,0.0105,1.275
166.4,0.0174,0.4125,0.0105,1.275
166.501,0.0173,0.4125,0.0105,1.275
166.601,0.0173,0.414,0.0105,1.2735
166.7,0.0174,0.414,0.0105,1.2735
166.8,0.01735,0.414,0.0105,1.272
166.9,0.01735,0.4155,0.0105,1.272
167.001,0.01735,0.4155,0.0105,1.272
167.101,0.01725,0.417,0.0105,1.2705
167.199,0.0174,0.417,0.0105,1.2705
167.3,0.01735,0.417,0.0105,1.2705
167.4,0.01735,0.4185,0.0105,1.2705
167.5,0.0174,0.4185,0.012,1.269
167.6,0.0174,0.42,0.0105,1.269
167.7,0.0174,0.42,0.012,1.269
167.799,0.01735,0.42,0.0105,1.2675
167.901,0.01735,0.4215,0.012,1.2675
167.999,0.0173,0.4215,0.0105,1.266
168.1,0.0174,0.423,0.0105,1.266
168.201,0.01735,0.423,0.012,1.266
168.3,0.0174,0.423,0.012,1.266
168.399,0.0173,0.4245,0.012,1.266
168.501,0.0174,0.4245,0.012,1.2645
168.599,0.0173,0.4245,0.0105,1.2645
168.701,0.01735,0.426,0.012,1.2645
168.8,0.0173,0.426,0.012,1.2645
168.899,0.0173,0.426,0.012,1.2645
168.999,0.01725,0.4275,0.012,1.2645
169.099,0.01725,0.4275,0.012,1.263
169.2,0.01725,0.429,0.012,1.2615
169.299,0.0173,0.429,0.012,1.263
169.4,0.0173,0.4305,0.012,1.2615
169.499,0.0173,0.4305,0.012,1.2615
169.6,0.0173,0.4305,0.012,1.2615
169.7,0.0173,0.432,0.012,1.26
169.799,0.0173,0.432,0.012,1.26
169.901,0.0173,0.432,0.012,1.2585
170,0.0173,0.4335,0.012,1.2585
170.1,0.0173,0.4335,0.012,1.2585
170.199,0.01725,0.4335,0.012,1.2585
170.301,0.0173,0.435,0.012,1.257
170.399,0.01725,0.435,0.012,1.257
170.5,0.0173,0.4365,0.012,1.257
170.599,0.0173,0.4365,0.012,1.257
170.7,0.01725,0.4365,0.012,1.257
170.799,0.0173,0.438,0.012,1.2555
170.901,0.0173,0.438,0.012,1.254
171,0.01725,0.4395,0.012,1.2555
171.1,0.0173,0.4395,0.012,1.2555
171.2,0.0173,0.4395,0.012,1.254
171.299,0.0173,0.441,0.012,1.254
171.4,0.01725,0.441,0.012,1.2525
171.5,0.01725,0.441,0.012,1.2525
171.6,0.01725,0.4425,0.012,1.2525
171.701,0.0173,0.4425,0.012,1.251
171.8,0.01725,0.444,0.012,1.251
171.9,0.01725,0.444,0.012,1.2525
172,0.0173,0.444,0.012,1.251
172.1,0.0173,0.4455,0.012,1.251
172.2,0.0173,0.4455,0.012,1.2495
172.3,0.0173,0.447,0.012,1.2495
172.401,0.0173,0.447,0.012,1.248
172.5,0.0173,0.447,0.012,1.2495
172.6,0.01725,0.4485,0.012,1.248
172.7,0.0171,0.4485,0.012,1.248
172.8,0.0173,0.45,0.012,1.2465
172.9,0.0171,0.45,0.012,1.248
173.001,0.0173,0.45,0.012,1.2465
173.1,0.0173,0.4515,0.012,1.2465
173.2,0.01725,0.4515,0.012,1.245
173.301,0.0173,0.453,0.012,1.245
173.4,0.0172,0.453,0.012,1.2465
173.501,0.0173,0.4545,0.012,1.2435
173.6,0.01715,0.4545,0.012,1.245
173.7,0.0171,0.4545,0.012,1.2435
173.8,0.0173,0.456,0.012,1.2435
173.9,0.0171,0.456,0.012,1.2435
174,0.0171,0.4575,0.012,1.242
174.101,0.0171,0.4575,0.012,1.242
174.2,0.01715,0.4575,0.012,1.242
174.3,0.01715,0.459,0.012,1.242
174.401,0.01715,0.459,0.012,1.242
174.5,0.01725,0.4605,0.012,1.2405
174.6,0.0171,0.4605,0.012,1.239
174.7,0.0172,0.4605,0.012,1.2405
174.8,0.0173,0.462,0.012,1.239
174.9,0.0173,0.462,0.012,1.2345
175,0.0172,0.4635,0.012,1.2375
175.099,0.0173,0.4635,0.012,1.2375
175.2,0.01725,0.4635,0.012,1.2375
175.3,0.01725,0.465,0.012,1.2375
175.401,0.01715,0.465,0.012,1.236
175.5,0.01735,0.4665,0.012,1.236
175.601,0.0173,0.4665,0.012,1.2315
175.7,0.0173,0.468,0.012,1.2345
175.8,0.0173,0.468,0.012,1.2345
175.901,0.0173,0.468,0.012,1.2345
176.001,0.01725,0.4695,0.012,1.2345
176.1,0.0173,0.4695,0.012,1.233
176.201,0.01735,0.471,0.012,1.233
176.3,0.0173,0.471,0.012,1.2315
176.401,0.01735,0.4725,0.012,1.2315
176.5,0.0174,0.4725,0.012,1.2315
176.6,0.01735,0.4725,0.012,1.23
176.7,0.0174,0.474,0.012,1.23
176.8,0.01735,0.474,0.012,1.23
176.901,0.0173,0.4755,0.012,1.23
176.999,0.0174,0.4755,0.012,1.2285
177.1,0.01735,0.4755,0.012,1.2285
177.201,0.0174,0.477,0.012,1.2285
177.299,0.01735,0.477,0.012,1.227
177.4,0.0174,0.4785,0.012,1.227
177.5,0.01735,0.4785,0.012,1.227
177.6,0.0174,0.48,0.012,1.2255
177.7,0.0174,0.48,0.0135,1.2255
177.801,0.0174,0.48,0.012,1.2255
177.9,0.0173,0.4815,0.012,1.224
178,0.0174,0.4815,0.012,1.224
178.1,0.0174,0.483,0.012,1.224
178.201,0.0174,0.483,0.012,1.2225
178.3,0.0174,0.483,0.012,1.2225
178.4,0.0174,0.4845,0.0135,1.2225
178.5,0.0173,0.4845,0.012,1.221
178.6,0.01735,0.486,0.012,1.221
178.701,0.0174,0.486,0.0135,1.221
178.8,0.0173,0.4875,0.0135,1.221
178.901,0.0174,0.4875,0.0135,1.221
179.001,0.0173,0.4875,0.0135,1.2195
179.1,0.0173,0.489,0.012,1.218
179.2,0.0173,0.489,0.0135,1.218
179.3,0.0173,0.4905,0.0135,1.218
179.4,0.0173,0.4905,0.0135,1.2165
179.5,0.0173,0.492,0.0135,1.2165
179.6,0.0173,0.492,0.0135,1.215
179.7,0.01735,0.4935,0.0135,1.2165
179.8,0.0173,0.4935,0.0135,1.215
179.901,0.01725,0.495,0.0135,1.2135
180,0.01725,0.495,0.0135,1.215
180.1,0.0173,0.495,0.0135,1.2135
180.201,0.0173,0.4965,0.0135,1.2135
180.3,0.0173,0.4965,0.0135,1.2135
180.4,0.0173,0.498,0.0135,1.212
180.5,0.01725,0.498,0.0135,1.2105
180.6,0.0173,0.498,0.0135,1.212
180.7,0.0173,0.4995,0.0135,1.209
180.8,0.0173,0.4995,0.0135,1.209
180.9,0.0173,0.501,0.0135,1.209
181,0.0173,0.501,0.0135,1.209
181.1,0.0173,0.5025,0.0135,1.209
181.2,0.0173,0.5025,0.0135,1.2075
181.3,0.0173,0.504,0.0135,1.2075
181.4,0.01725,0.504,0.0135,1.206
181.5,0.0173,0.504,0.0135,1.206
181.6,0.0173,0.5055,0.0135,1.206
181.701,0.0173,0.5055,0.0135,1.206
181.8,0.0173,0.507,0.0135,1.2045
181.901,0.0173,0.507,0.0135,1.2045
182,0.0173,0.5085,0.0135,1.203
182.1,0.0173,0.5085,0.0135,1.203
182.199,0.01725,0.51,0.0135,1.2015
182.301,0.0173,0.51,0.0135,1.203
182.4,0.0173,0.51,0.0135,1.2015
182.5,0.0173,0.5115,0.0135,1.2015
182.6,0.01725,0.5115,0.0135,1.2
182.7,0.0171,0.513,0.0135,1.2
182.8,0.01725,0.513,0.0135,1.1985
182.901,0.0173,0.5145,0.0135,1.2
183,0.01725,0.5145,0.0135,1.1985
183.1,0.0171,0.516,0.0135,1.197
183.2,0.01725,0.516,0.0135,1.197
183.3,0.01715,0.516,0.0135,1.197
183.401,0.01715,0.5175,0.0135,1.197
183.5,0.01715,0.5175,0.0135,1.1955
183.6,0.0172,0.519,0.0135,1.194
183.701,0.0171,0.519,0.0135,1.1955
183.8,0.0171,0.5205,0.0135,1.194
183.901,0.0173,0.5205,0.0135,1.194
184,0.01715,0.522,0.0135,1.194
184.099,0.0172,0.522,0.015,1.1925
184.2,0.01715,0.522,0.015,1.1925
184.3,0.01725,0.5235,0.015,1.191
184.399,0.01725,0.5235,0.015,1.191
184.499,0.01725,0.525,0.0135,1.191
184.6,0.0173,0.525,0.015,1.191
184.699,0.0173,0.5265,0.015,1.1895
184.8,0.0173,0.5265,0.015,1.1895
184.9,0.0173,0.528,0.015,1.1895
184.999,0.0173,0.528,0.015,1.1895
185.1,0.01725,0.528,0.015,1.188
185.201,0.0171,0.5295,0.015,1.188
185.301,0.01725,0.5295,0.015,1.1865
185.401,0.01715,0.531,0.015,1.1865
185.5,0.01725,0.531,0.015,1.1865
185.601,0.0173,0.5325,0.015,1.1865
185.7,0.01735,0.5325,0.015,1.1865
185.8,0.0173,0.5325,0.015,1.185
185.901,0.0171,0.534,0.015,1.185
186.001,0.0173,0.534,0.015,1.185
186.1,0.0173,0.5355,0.015,1.1835
186.201,0.0172,0.5355,0.015,1.1835
186.301,0.01725,0.537,0.015,1.182
186.401,0.01725,0.537,0.015,1.182
186.5,0.0173,0.5385,0.015,1.182
186.601,0.01725,0.5385,0.015,1.182
186.701,0.01735,0.54,0.015,1.1805
186.801,0.0173,0.54,0.015,1.1805
186.9,0.01735,0.54,0.015,1.1805
187.001,0.0172,0.5415,0.015,1.1805
187.101,0.0173,0.543,0.015,1.179
187.201,0.01725,0.543,0.015,1.179
187.3,0.01735,0.543,0.015,1.179
187.401,0.0173,0.5445,0.015,1.1775
187.499,0.01735,0.5445,0.015,1.1775
187.601,0.01735,0.546,0.015,1.1775
187.701,0.0173,0.546,0.015,1.1775
187.8,0.0173,0.5475,0.015,1.176
187.901,0.0173,0.5475,0.015,1.176
188,0.01735,0.5475,0.015,1.176
188.102,0.0173,0.549,0.015,1.1745
188.208,0.0173,0.5505,0.015,1.1775
188.3,0.0173,0.5505,0.015,1.1745
188.401,0.01735,0.552,0.015,1.173
188.5,0.0174,0.552,0.015,1.173
188.6,0.01735,0.552,0.015,1.1745
188.701,0.01725,0.5535,0.015,1.173
188.803,0.0173,0.5535,0.015,1.173
188.9,0.0173,0.555,0.015,1.173
189.001,0.01735,0.555,0.015,1.1715
189.1,0.0174,0.5565,0.015,1.1715
189.201,0.01735,0.5565,0.015,1.17
189.299,0.0173,0.558,0.015,1.1715
189.401,0.0174,0.558,0.015,1.17
189.5,0.0173,0.5595,0.0165,1.17
189.601,0.01735,0.5595,0.015,1.1685
189.7,0.0173,0.5595,0.015,1.1685
189.801,0.0174,0.561,0.015,1.1685
189.899,0.0173,0.561,0.015,1.1685
190,0.0173,0.5625,0.015,1.1685
190.1,0.0173,0.5625,0.0165,1.167
190.2,0.0173,0.564,0.015,1.167
190.3,0.01725,0.564,0.0165,1.167
190.399,0.0173,0.5655,0.0165,1.167
190.501,0.0173,0.5655,0.015,1.167
190.6,0.0173,0.567,0.0165,1.167
190.7,0.01725,0.567,0.015,1.1655
190.8,0.01725,0.5685,0.0165,1.164
190.901,0.01725,0.5685,0.0165,1.1655
191,0.0173,0.57,0.0165,1.164
191.1,0.01725,0.57,0.0165,1.1655
191.201,0.0173,0.5715,0.0165,1.164
