Time t / s,Current I_A1 / A,Voltage U_B1 / V,Voltage U_B2 / V,Voltage U_A2 / V
0,0.0169,1.344,0.0735,0.594
0.1,0.01685,1.344,0.0735,0.594
0.201,0.01675,1.344,0.0735,0.594
0.3,0.0168,1.344,0.0735,0.594
0.4,0.0168,1.344,0.0735,0.594
0.5,0.0168,1.344,0.0735,0.5925
0.601,0.01675,1.344,0.0735,0.5925
0.7,0.0168,1.344,0.0735,0.5925
0.8,0.01685,1.344,0.0735,0.5925
0.901,0.01665,1.344,0.0735,0.5925
1,0.0168,1.344,0.0735,0.5925
1.101,0.0168,1.344,0.0735,0.5925
1.2,0.0168,1.344,0.0735,0.5925
1.301,0.01675,1.344,0.0735,0.5925
1.401,0.0168,1.344,0.0735,0.5925
1.5,0.01685,1.344,0.0735,0.594
1.6,0.0168,1.344,0.0735,0.594
1.7,0.0168,1.344,0.0735,0.594
1.8,0.0168,1.344,0.0735,0.5955
1.9,0.0168,1.344,0.0735,0.5955
2.001,0.0168,1.344,0.0735,0.597
2.1,0.01685,1.344,0.0735,0.597
2.201,0.0168,1.344,0.0735,0.5985
2.301,0.01675,1.344,0.0735,0.6
2.401,0.0168,1.344,0.0735,0.6
2.5,0.01685,1.344,0.0735,0.6015
2.6,0.0168,1.344,0.0735,0.603
2.7,0.0168,1.344,0.0735,0.6045
2.8,0.01685,1.344,0.0735,0.606
2.9,0.0168,1.344,0.0735,0.606
3.001,0.0168,1.344,0.0735,0.6075
3.1,0.01685,1.344,0.0735,0.609
3.201,0.01685,1.3455,0.0735,0.6105
3.3,0.0168,1.3455,0.0735,0.6105
3.401,0.0168,1.3455,0.0735,0.612
3.501,0.01675,1.3455,0.0735,0.6135
3.6,0.01685,1.3455,0.0735,0.615
3.701,0.0168,1.3455,0.0735,0.6165
3.8,0.01685,1.3455,0.0735,0.6165
3.901,0.0168,1.3455,0.0735,0.618
4,0.01685,1.3455,0.0735,0.6195
4.1,0.0168,1.347,0.0735,0.621
4.2,0.01685,1.347,0.0735,0.6225
4.3,0.01685,1.347,0.072,0.624
4.401,0.0168,1.347,0.072,0.624
4.501,0.0168,1.347,0.072,0.6255
4.601,0.01675,1.347,0.072,0.627
4.701,0.0168,1.347,0.072,0.6285
4.8,0.0168,1.347,0.072,0.6285
4.9,0.0168,1.3485,0.072,0.63
5,0.0167,1.3485,0.072,0.6315
5.101,0.0168,1.3485,0.072,0.633
5.2,0.0169,1.3485,0.072,0.6345
5.301,0.01675,1.3485,0.072,0.636
5.401,0.01685,1.3485,0.072,0.636
5.5,0.01685,1.3485,0.072,0.6375
5.601,0.0168,1.35,0.072,0.639
5.7,0.0168,1.35,0.072,0.6405
5.8,0.0168,1.35,0.072,0.642
5.9,0.01685,1.35,0.072,0.6435
6,0.0168,1.35,0.072,0.6435
6.1,0.0168,1.35,0.072,0.645
6.2,0.0168,1.35,0.072,0.6465
6.3,0.01685,1.35,0.072,0.648
6.4,0.0169,1.35,0.072,0.6495
6.5,0.0168,1.35,0.072,0.651
6.601,0.01675,1.35,0.072,0.651
6.701,0.0168,1.35,0.072,0.6525
6.8,0.0168,1.35,0.072,0.654
6.9,0.0168,1.3515,0.0705,0.6555
7,0.0168,1.3515,0.0705,0.6555
7.1,0.0168,1.3515,0.0705,0.6585
7.201,0.01675,1.3515,0.0705,0.6585
7.3,0.0168,1.3515,0.0705,0.66
7.401,0.0168,1.35,0.0705,0.6615
7.5,0.0168,1.3515,0.0705,0.663
7.6,0.0168,1.3515,0.0705,0.6645
7.7,0.0168,1.3515,0.0705,0.666
7.8,0.0169,1.3515,0.0705,0.666
7.9,0.01685,1.3515,0.0705,0.6675
8,0.01685,1.3515,0.0705,0.669
8.1,0.0169,1.3515,0.0705,0.6705
8.2,0.01685,1.3515,0.0705,0.672
8.301,0.0168,1.3515,0.0705,0.672
8.4,0.0168,1.3515,0.0705,0.6735
8.5,0.0168,1.35,0.0705,0.675
8.601,0.0168,1.35,0.0705,0.6765
8.7,0.0168,1.35,0.0705,0.6765
8.801,0.01675,1.35,0.0705,0.678
8.901,0.0168,1.35,0.069,0.6795
9,0.0168,1.35,0.069,0.681
9.1,0.0168,1.35,0.069,0.6825
9.2,0.0168,1.35,0.069,0.684
9.3,0.0168,1.35,0.069,0.684
9.401,0.01675,1.35,0.069,0.6855
9.501,0.0168,1.35,0.069,0.687
9.6,0.0168,1.35,0.069,0.6885
9.7,0.0168,1.3485,0.069,0.69
9.801,0.01675,1.3485,0.069,0.69
9.899,0.01685,1.3485,0.069,0.6915
10,0.0168,1.3485,0.069,0.693
10.1,0.0168,1.3485,0.069,0.6945
10.2,0.0168,1.347,0.069,0.696
10.3,0.0168,1.347,0.069,0.696
10.4,0.0167,1.347,0.0675,0.6975
10.5,0.0168,1.347,0.069,0.699
10.6,0.01685,1.347,0.069,0.7005
10.7,0.01685,1.3455,0.0675,0.702
10.8,0.0168,1.347,0.069,0.7035
10.9,0.0168,1.3455,0.0675,0.7035
11.001,0.01675,1.3455,0.0675,0.705
11.1,0.0168,1.3455,0.0675,0.7065
11.2,0.0168,1.3455,0.0675,0.708
11.301,0.0167,1.344,0.0675,0.708
11.401,0.0167,1.344,0.0675,0.7095
11.5,0.01675,1.344,0.0675,0.711
11.6,0.0168,1.344,0.0675,0.7125
11.7,0.0168,1.3425,0.0675,0.714
11.8,0.01675,1.3425,0.0675,0.7155
11.901,0.0167,1.3425,0.066,0.7155
12,0.01675,1.341,0.066,0.717
12.1,0.0168,1.341,0.0675,0.7185
12.2,0.0168,1.341,0.066,0.72
12.3,0.0168,1.3395,0.066,0.72
12.4,0.0168,1.3395,0.066,0.7215
12.501,0.0167,1.3395,0.066,0.723
12.601,0.0168,1.338,0.066,0.723
12.7,0.01675,1.338,0.066,0.7245
12.8,0.0168,1.3365,0.066,0.726
12.901,0.0167,1.3365,0.066,0.7275
13,0.0168,1.3365,0.066,0.729
13.101,0.0167,1.335,0.066,0.729
13.201,0.0167,1.335,0.0645,0.7305
13.301,0.0167,1.3335,0.0645,0.732
13.401,0.0168,1.3335,0.0645,0.7335
13.501,0.0168,1.3335,0.0645,0.735
13.6,0.0168,1.332,0.0645,0.7365
13.7,0.01675,1.332,0.0645,0.7365
13.801,0.0167,1.3305,0.0645,0.738
13.9,0.01675,1.3305,0.0645,0.7395
14,0.0168,1.329,0.0645,0.741
14.1,0.0168,1.329,0.0645,0.7425
14.201,0.0167,1.3275,0.0645,0.7425
14.3,0.01675,1.3275,0.0645,0.744
14.401,0.0167,1.326,0.0645,0.7455
14.5,0.0168,1.326,0.0645,0.747
14.6,0.0168,1.3245,0.063,0.7485
14.7,0.0168,1.323,0.063,0.7485
14.8,0.01675,1.323,0.063,0.75
14.899,0.0168,1.323,0.063,0.7515
15,0.0168,1.3215,0.063,0.753
15.1,0.0166,1.32,0.063,0.7545
15.201,0.0167,1.32,0.063,0.7545
15.301,0.0167,1.3185,0.063,0.756
15.402,0.0166,1.3185,0.063,0.7575
15.5,0.0168,1.317,0.063,0.759
15.6,0.0168,1.3155,0.063,0.759
15.701,0.0168,1.3155,0.0615,0.7605
15.8,0.01675,1.314,0.0615,0.762
15.901,0.0167,1.314,0.0615,0.7635
16,0.0168,1.3125,0.0615,0.765
16.101,0.0168,1.311,0.0615,0.765
16.2,0.0168,1.3095,0.0615,0.7665
16.301,0.0168,1.3095,0.0615,0.768
16.402,0.0166,1.308,0.0615,0.7695
16.5,0.0168,1.3065,0.0615,0.7695
16.6,0.0168,1.3065,0.0615,0.771
16.701,0.0167,1.305,0.0615,0.771
16.8,0.01685,1.3035,0.06,0.774
16.9,0.0168,1.302,0.06,0.774
17,0.0168,1.302,0.06,0.7755
17.101,0.0168,1.3005,0.06,0.777
17.201,0.0168,1.299,0.06,0.7785
17.3,0.0168,1.2975,0.06,0.7785
17.4,0.0168,1.2975,0.06,0.78
17.5,0.0168,1.296,0.06,0.7815
17.6,0.0168,1.2945,0.06,0.783
17.699,0.01685,1.2945,0.06,0.7845
17.799,0.01685,1.293,0.0585,0.786
17.9,0.01685,1.2915,0.06,0.786
18,0.0168,1.29,0.0585,0.7875
18.101,0.0167,1.2885,0.0585,0.789
18.2,0.01675,1.2885,0.0585,0.7905
18.3,0.0168,1.287,0.0585,0.7905
18.401,0.0167,1.2855,0.0585,0.792
18.5,0.0168,1.284,0.0585,0.7935
18.6,0.0168,1.2825,0.0585,0.795
18.7,0.0168,1.281,0.0585,0.795
18.8,0.0168,1.2795,0.0585,0.7965
18.901,0.0167,1.278,0.057,0.798
19.001,0.0168,1.2765,0.057,0.7995
19.1,0.0168,1.275,0.057,0.801
19.201,0.0168,1.275,0.057,0.801
19.3,0.0168,1.2735,0.057,0.8025
19.399,0.01685,1.272,0.057,0.804
19.5,0.0168,1.2705,0.057,0.8055
19.601,0.0168,1.269,0.057,0.807
19.7,0.0168,1.2675,0.057,0.807
19.8,0.0168,1.266,0.057,0.8085
19.9,0.0168,1.2645,0.0555,0.81
20.001,0.0167,1.263,0.0555,0.81
20.101,0.01675,1.2615,0.0555,0.8115
20.2,0.0168,1.26,0.0555,0.813
20.3,0.0168,1.2585,0.0555,0.8145
20.401,0.0168,1.257,0.0555,0.816
20.5,0.0168,1.2555,0.0555,0.816
20.6,0.0168,1.254,0.0555,0.8175
20.7,0.0168,1.2525,0.054,0.819
20.8,0.0168,1.251,0.054,0.8205
20.9,0.0168,1.2495,0.054,0.8205
21.001,0.0168,1.248,0.054,0.822
21.1,0.0168,1.2465,0.054,0.8235
21.2,0.0168,1.245,0.054,0.8235
21.3,0.0168,1.2435,0.054,0.825
21.4,0.0168,1.242,0.054,0.8265
21.5,0.01675,1.2405,0.054,0.828
21.601,0.0168,1.2375,0.054,0.8295
21.7,0.0168,1.236,0.0525,0.8295
21.8,0.01685,1.236,0.0525,0.831
21.9,0.0168,1.233,0.0525,0.8325
22,0.01685,1.2315,0.0525,0.834
22.101,0.0168,1.23,0.0525,0.834
22.201,0.01685,1.2285,0.0525,0.8355
22.3,0.01685,1.227,0.0525,0.837
22.401,0.01675,1.2255,0.0525,0.8385
22.501,0.0166,1.224,0.0525,0.84
22.6,0.01685,1.221,0.051,0.84
22.701,0.0168,1.2195,0.051,0.8415
22.801,0.01675,1.218,0.051,0.843
22.9,0.01685,1.2165,0.051,0.843
23,0.01685,1.215,0.051,0.8445
23.1,0.01685,1.212,0.051,0.846
23.2,0.01685,1.2105,0.051,0.8475
23.3,0.0168,1.209,0.051,0.8475
23.401,0.0168,1.2075,0.051,0.849
23.501,0.01685,1.206,0.051,0.8505
23.6,0.01685,1.203,0.051,0.852
23.701,0.0168,1.2015,0.051,0.852
23.8,0.01685,1.2,0.0495,0.8535
23.901,0.01685,1.1985,0.0495,0.855
24,0.01685,1.197,0.0495,0.8565
24.101,0.01685,1.194,0.0495,0.858
24.201,0.01685,1.1925,0.0495,0.858
24.3,0.01685,1.191,0.0495,0.8595
24.4,0.01685,1.1895,0.0495,0.861
24.501,0.01685,1.1865,0.0495,0.861
24.6,0.0169,1.185,0.0495,0.8625
24.7,0.0169,1.1835,0.048,0.864
24.8,0.0169,1.1805,0.0495,0.8655
24.9,0.01685,1.179,0.048,0.8655
25.001,0.01685,1.1775,0.048,0.867
25.1,0.01685,1.1745,0.048,0.8685
25.2,0.01685,1.173,0.048,0.8685
25.3,0.01685,1.1715,0.048,0.87
25.4,0.01685,1.1685,0.048,0.8715
25.5,0.01685,1.167,0.048,0.873
25.6,0.01685,1.164,0.048,0.8745
25.7,0.01685,1.1625,0.0465,0.8745
25.801,0.0168,1.161,0.0465,0.876
25.9,0.0169,1.158,0.0465,0.8775
26,0.0169,1.1565,0.0465,0.8775
26.101,0.0168,1.1535,0.0465,0.879
26.2,0.01685,1.152,0.0465,0.8805
26.3,0.0169,1.1505,0.0465,0.882
26.401,0.0169,1.1475,0.0465,0.882
26.501,0.0169,1.146,0.0465,0.8835
26.6,0.0169,1.1445,0.0465,0.885
26.699,0.0168,1.1415,0.045,0.8865
26.799,0.0168,1.14,0.045,0.888
26.9,0.0169,1.137,0.045,0.888
27,0.0169,1.1355,0.045,0.8895
27.099,0.01685,1.1325,0.045,0.891
27.199,0.0168,1.131,0.045,0.891
27.3,0.01685,1.1295,0.045,0.8925
27.4,0.01685,1.1265,0.045,0.894
27.501,0.01685,1.125,0.0435,0.8955
27.6,0.01685,1.122,0.045,0.8955
27.7,0.0169,1.1205,0.0435,0.897
27.8,0.0169,1.1175,0.0435,0.8985
27.901,0.0169,1.116,0.0435,0.8985
28,0.0169,1.113,0.0435,0.9
28.101,0.0169,1.1115,0.0435,0.9015
28.2,0.0169,1.1085,0.0435,0.903
28.3,0.0169,1.107,0.0435,0.9045
28.401,0.0169,1.104,0.0435,0.9045
28.5,0.0169,1.1025,0.0435,0.906
28.6,0.0169,1.101,0.042,0.9075
28.701,0.01685,1.098,0.042,0.909
28.801,0.01685,1.0965,0.042,0.909
28.9,0.01685,1.0935,0.042,0.9105
29,0.01685,1.092,0.042,0.912
29.1,0.01685,1.089,0.042,0.912
29.201,0.0169,1.0875,0.042,0.9135
29.301,0.01685,1.0845,0.042,0.915
29.4,0.01685,1.083,0.042,0.915
29.501,0.0169,1.08,0.042,0.9165
29.601,0.01685,1.0785,0.0405,0.918
29.7,0.01685,1.0755,0.0405,0.9195
29.801,0.0169,1.0725,0.0405,0.9195
29.9,0.01685,1.071,0.0405,0.921
30.001,0.0169,1.068,0.0405,0.9225
30.1,0.01685,1.0665,0.0405,0.9225
30.199,0.01675,1.0635,0.0405,0.9255
30.3,0.01685,1.062,0.0405,0.9255
30.401,0.01685,1.059,0.039,0.927
30.5,0.01685,1.0575,0.039,0.927
30.6,0.0168,1.056,0.039,0.9285
30.701,0.0169,1.053,0.039,0.93
30.801,0.0169,1.05,0.039,0.93
30.9,0.0168,1.0485,0.039,0.9315
31.001,0.0169,1.0455,0.039,0.933
31.101,0.0169,1.044,0.039,0.9345
31.2,0.0168,1.041,0.039,0.936
31.3,0.0168,1.0395,0.039,0.9375
31.4,0.0168,1.0365,0.039,0.9375
31.501,0.0169,1.035,0.039,0.939
31.6,0.0168,1.032,0.0375,0.9405
31.701,0.0169,1.029,0.0375,0.9405
31.801,0.0168,1.0275,0.0375,0.942
31.9,0.0168,1.026,0.0375,0.9435
32.002,0.01685,1.023,0.0375,0.9435
32.1,0.0168,1.02,0.0375,0.945
32.2,0.0168,1.0185,0.0375,0.9465
32.301,0.0169,1.0155,0.0375,0.948
32.401,0.01685,1.014,0.0375,0.948
32.5,0.0168,1.011,0.036,0.9495
32.6,0.0168,1.008,0.036,0.951
32.7,0.01675,1.0065,0.036,0.9525
32.801,0.01685,1.005,0.036,0.9525
32.901,0.0169,1.002,0.036,0.954
33.001,0.0168,0.999,0.036,0.9555
33.1,0.0168,0.9975,0.036,0.957
33.2,0.0168,0.9945,0.036,0.957
33.301,0.01685,0.993,0.036,0.9585
33.4,0.0169,0.99,0.036,0.96
33.5,0.0168,0.987,0.036,0.9615
33.6,0.0168,0.9855,0.0345,0.9615
33.701,0.01685,0.9825,0.0345,0.9615
33.801,0.01685,0.981,0.0345,0.963
33.9,0.0168,0.978,0.0345,0.966
34.001,0.01685,0.975,0.0345,0.966
34.101,0.01685,0.9735,0.0345,0.966
34.201,0.0168,0.9705,0.0345,0.969
34.3,0.01675,0.969,0.0345,0.9705
34.4,0.01675,0.966,0.0345,0.9705
34.501,0.01685,0.963,0.0345,0.9705
34.6,0.0168,0.9615,0.033,0.9735
34.7,0.0168,0.96,0.033,0.975
34.8,0.0168,0.957,0.033,0.975
34.9,0.0168,0.954,0.033,0.9765
35,0.01675,0.9525,0.033,0.978
35.1,0.01675,0.9495,0.033,0.9795
35.2,0.01675,0.948,0.033,0.9795
35.3,0.0168,0.945,0.033,0.981
35.4,0.01675,0.942,0.033,0.9825
35.501,0.0168,0.9405,0.033,0.984
35.6,0.01675,0.9375,0.033,0.984
35.7,0.0168,0.936,0.033,0.9855
35.801,0.0168,0.933,0.0315,0.9855
35.9,0.0168,0.93,0.0315,0.9885
36,0.0168,0.9285,0.0315,0.99
36.101,0.0168,0.9255,0.0315,0.9885
36.2,0.0168,0.924,0.0315,0.9915
36.3,0.0168,0.921,0.0315,0.99
36.401,0.0168,0.918,0.0315,0.9915
36.501,0.01675,0.9165,0.0315,0.9945
36.6,0.0168,0.9135,0.0315,0.9945
36.7,0.01675,0.912,0.0315,0.9975
36.8,0.0168,0.9105,0.03,0.9975
36.9,0.0168,0.9075,0.03,0.9975
37.001,0.0168,0.9045,0.03,0.999
37.101,0.0168,0.903,0.03,1.0005
37.2,0.0168,0.9,0.03,1.002
37.3,0.01685,0.8985,0.03,1.002
37.401,0.0168,0.8955,0.03,1.002
37.501,0.0168,0.894,0.03,1.005
37.6,0.0168,0.891,0.03,1.0065
37.7,0.01675,0.888,0.03,1.0065
37.801,0.01675,0.8865,0.03,1.008
37.9,0.0168,0.8835,0.03,1.0095
38,0.0168,0.882,0.0285,1.0095
38.101,0.0168,0.879,0.0285,1.011
38.201,0.0168,0.876,0.0285,1.011
38.301,0.0168,0.8745,0.0285,1.014
38.4,0.0168,0.8715,0.0285,1.014
38.5,0.0168,0.87,0.0285,1.017
38.6,0.0168,0.867,0.0285,1.017
38.7,0.0168,0.8655,0.0285,1.017
38.801,0.0168,0.8625,0.0285,1.0185
38.9,0.0168,0.861,0.0285,1.02
39,0.0168,0.858,0.0285,1.0215
39.1,0.0168,0.8565,0.0285,1.023
39.201,0.0168,0.8535,0.0285,1.023
39.3,0.0168,0.8505,0.0285,1.0245
39.4,0.0168,0.849,0.027,1.023
39.501,0.0168,0.846,0.027,1.026
39.601,0.0168,0.8445,0.027,1.0275
39.7,0.0168,0.8415,0.027,1.029
39.8,0.0168,0.84,0.027,1.0275
39.901,0.0168,0.837,0.027,1.0305
40.001,0.0168,0.8355,0.027,1.032
40.1,0.0168,0.8325,0.027,1.032
40.2,0.0168,0.831,0.027,1.0335
40.301,0.0168,0.828,0.027,1.0335
40.4,0.01675,0.825,0.027,1.0365
40.5,0.0168,0.8235,0.027,1.038
40.6,0.01675,0.8205,0.027,1.038
40.701,0.0168,0.819,0.0255,1.0395
40.8,0.0168,0.816,0.0255,1.041
40.9,0.0168,0.8145,0.0255,1.041
41,0.0168,0.813,0.0255,1.0425
41.101,0.0168,0.81,0.0255,1.0425
41.201,0.0168,0.8085,0.0255,1.0455
41.3,0.01675,0.8055,0.0255,1.047
41.4,0.0168,0.804,0.0255,1.047
41.5,0.0168,0.801,0.0255,1.0485
41.601,0.01675,0.7995,0.0255,1.0485
41.701,0.0168,0.7965,0.0255,1.05
41.8,0.0168,0.795,0.0255,1.0515
41.901,0.0168,0.792,0.024,1.053
42,0.0168,0.7905,0.024,1.053
42.101,0.0168,0.7875,0.0255,1.0545
42.201,0.0168,0.786,0.024,1.056
42.3,0.01675,0.783,0.024,1.056
42.4,0.0168,0.7815,0.024,1.0575
42.501,0.0168,0.7785,0.024,1.0575
42.601,0.0168,0.777,0.024,1.059
42.701,0.0168,0.774,0.024,1.0605
42.801,0.0168,0.7725,0.024,1.062
42.9,0.0168,0.7695,0.024,1.0635
43.001,0.01675,0.768,0.024,1.0635
43.1,0.0168,0.7665,0.024,1.065
43.2,0.0168,0.7635,0.024,1.0665
43.301,0.01675,0.762,0.024,1.0665
43.401,0.0168,0.759,0.024,1.068
43.5,0.01675,0.7575,0.0225,1.0695
43.601,0.0168,0.7545,0.0225,1.0695
43.7,0.01675,0.753,0.0225,1.071
43.8,0.01675,0.7515,0.0225,1.0725
43.901,0.0168,0.7485,0.0225,1.0725
44.001,0.01675,0.747,0.0225,1.074
44.1,0.0168,0.744,0.0225,1.0755
44.2,0.0168,0.7425,0.0225,1.0755
44.301,0.0168,0.741,0.0225,1.077
44.401,0.0168,0.738,0.0225,1.0785
44.5,0.0168,0.7365,0.0225,1.08
44.601,0.0168,0.7335,0.0225,1.0815
44.7,0.0168,0.732,0.0225,1.0815
44.8,0.0168,0.729,0.021,1.083
44.9,0.01675,0.7275,0.0225,1.0845
45,0.0168,0.726,0.021,1.086
45.1,0.0168,0.723,0.021,1.086
45.2,0.01665,0.7215,0.021,1.0875
45.3,0.01665,0.72,0.021,1.089
45.4,0.01675,0.717,0.021,1.0905
45.501,0.0168,0.7155,0.021,1.089
45.6,0.0168,0.714,0.021,1.092
45.701,0.0168,0.711,0.021,1.0905
45.8,0.0168,0.7095,0.021,1.0935
45.9,0.01675,0.708,0.021,1.095
46,0.01675,0.705,0.021,1.0965
46.101,0.0168,0.7035,0.021,1.0965
46.2,0.0167,0.702,0.021,1.098
46.3,0.0167,0.699,0.021,1.0995
46.4,0.0167,0.6975,0.021,1.101
46.501,0.0168,0.6945,0.021,1.101
46.601,0.01675,0.693,0.021,1.101
46.701,0.0168,0.6915,0.021,1.1025
46.8,0.01665,0.69,0.0195,1.104
46.9,0.0166,0.687,0.0195,1.1055
47.001,0.0168,0.6855,0.0195,1.1055
47.1,0.0166,0.6825,0.021,1.107
47.2,0.0166,0.681,0.0195,1.1085
47.301,0.0168,0.6795,0.0195,1.1085
47.401,0.0166,0.678,0.0195,1.11
47.501,0.01665,0.675,0.0195,1.1115
47.6,0.01665,0.6735,0.0195,1.1115
47.7,0.01665,0.672,0.0195,1.113
47.8,0.01665,0.6705,0.0195,1.1145
47.902,0.01675,0.6675,0.0195,1.1145
48,0.0166,0.666,0.0195,1.116
48.1,0.01665,0.6645,0.0195,1.1175
48.2,0.01665,0.663,0.0195,1.119
48.301,0.01675,0.66,0.0195,1.119
48.4,0.01665,0.6585,0.0195,1.1205
48.501,0.01675,0.657,0.0195,1.1205
48.601,0.0167,0.654,0.018,1.122
48.699,0.0168,0.6525,0.0195,1.1235
48.8,0.0167,0.651,0.018,1.125
48.901,0.01665,0.6495,0.018,1.125
49.001,0.0167,0.6465,0.018,1.1265
49.1,0.0167,0.645,0.018,1.128
49.201,0.0167,0.6435,0.018,1.1295
49.3,0.0167,0.642,0.018,1.1295
49.4,0.0168,0.6405,0.018,1.131
49.5,0.01675,0.6375,0.018,1.1325
49.6,0.01675,0.636,0.018,1.1325
49.701,0.0166,0.6345,0.018,1.134
49.801,0.0166,0.633,0.018,1.134
49.901,0.01665,0.6315,0.018,1.1355
50,0.01665,0.6285,0.018,1.137
50.1,0.01675,0.627,0.018,1.1385
50.201,0.01665,0.6255,0.018,1.1385
50.3,0.0168,0.624,0.018,1.14
50.4,0.01675,0.6225,0.018,1.1415
50.501,0.01665,0.621,0.018,1.1415
50.601,0.0167,0.6195,0.018,1.143
50.7,0.01675,0.618,0.0165,1.1445
50.801,0.0167,0.615,0.0165,1.1445
50.901,0.01665,0.6135,0.018,1.146
51,0.0168,0.612,0.0165,1.1475
51.1,0.01675,0.6105,0.0165,1.1475
51.201,0.0168,0.609,0.0165,1.149
51.301,0.0167,0.6075,0.0165,1.1505
51.4,0.0168,0.606,0.0165,1.1505
51.499,0.01685,0.6045,0.0165,1.152
51.6,0.0168,0.6015,0.0165,1.152
51.7,0.0168,0.6,0.0165,1.1535
51.8,0.0168,0.5985,0.0165,1.1535
51.9,0.0168,0.597,0.0165,1.155
52,0.01685,0.5955,0.0165,1.1565
52.101,0.01675,0.594,0.0165,1.158
52.201,0.0168,0.591,0.0165,1.158
52.3,0.0168,0.5895,0.0165,1.1595
52.4,0.0168,0.588,0.0165,1.1595
52.501,0.01675,0.5865,0.0165,1.1625
52.6,0.0168,0.585,0.0165,1.1625
52.7,0.01685,0.5835,0.0165,1.164
52.8,0.0168,0.582,0.0165,1.164
52.901,0.01675,0.5805,0.0165,1.1655
53,0.0168,0.579,0.015,1.167
53.101,0.01675,0.5775,0.0165,1.1685
53.201,0.01675,0.576,0.015,1.1685
53.301,0.01685,0.5745,0.015,1.1685
53.401,0.0168,0.573,0.015,1.17
53.5,0.01675,0.57,0.0165,1.1685
53.6,0.0168,0.5685,0.015,1.1715
53.701,0.0168,0.567,0.015,1.1745
53.801,0.0168,0.5655,0.015,1.1745
53.9,0.01685,0.564,0.015,1.176
54,0.01685,0.5625,0.015,1.176
54.099,0.0169,0.561,0.015,1.1775
54.2,0.01685,0.5595,0.015,1.179
54.301,0.0168,0.558,0.015,1.1805
54.401,0.01685,0.5565,0.015,1.1805
54.5,0.01685,0.555,0.015,1.182
54.6,0.01685,0.5535,0.015,1.182
54.7,0.01685,0.552,0.015,1.1835
54.8,0.01685,0.5505,0.015,1.185
54.9,0.0169,0.549,0.015,1.185
55.001,0.0168,0.5475,0.015,1.1865
55.1,0.01685,0.546,0.015,1.188
55.199,0.0169,0.5445,0.015,1.188
55.3,0.0169,0.543,0.015,1.1895
55.4,0.0169,0.5415,0.015,1.191
55.5,0.01685,0.54,0.0135,1.191
55.6,0.0169,0.5385,0.015,1.1925
55.701,0.0169,0.537,0.015,1.1925
55.8,0.0169,0.5355,0.0135,1.194
55.9,0.0169,0.534,0.0135,1.1955
56,0.0169,0.5325,0.0135,1.197
56.1,0.0169,0.531,0.0135,1.197
56.2,0.0169,0.5295,0.0135,1.1985
56.3,0.0169,0.528,0.0135,1.2
56.399,0.0169,0.5265,0.0135,1.2
56.5,0.0169,0.525,0.0135,1.2015
56.601,0.0168,0.5235,0.0135,1.203
56.701,0.01685,0.522,0.0135,1.203
56.8,0.0169,0.5205,0.0135,1.2045
56.901,0.01685,0.519,0.0135,1.206
57.001,0.01685,0.5175,0.0135,1.206
57.101,0.0169,0.516,0.0135,1.2075
57.2,0.0169,0.5145,0.0135,1.2075
57.301,0.0169,0.513,0.0135,1.209
57.4,0.0169,0.5115,0.0135,1.2105
57.5,0.01695,0.51,0.0135,1.2105
57.601,0.01685,0.5085,0.0135,1.212
57.7,0.01695,0.5085,0.0135,1.2135
57.799,0.0169,0.507,0.0135,1.2135
57.9,0.0169,0.5055,0.0135,1.215
58.001,0.0169,0.504,0.012,1.2165
58.1,0.0169,0.5025,0.0135,1.2165
58.2,0.01685,0.501,0.012,1.218
58.3,0.0169,0.4995,0.0135,1.2195
58.401,0.01685,0.498,0.0135,1.2195
58.5,0.0169,0.4965,0.012,1.221
58.6,0.0169,0.495,0.012,1.2225
58.701,0.01685,0.4935,0.012,1.2225
58.801,0.01685,0.492,0.012,1.224
58.901,0.01685,0.4905,0.012,1.2255
59,0.0169,0.489,0.012,1.2255
59.1,0.0169,0.4875,0.012,1.227
59.2,0.0169,0.486,0.012,1.2285
59.301,0.01685,0.4845,0.012,1.2285
59.401,0.0169,0.483,0.012,1.23
59.501,0.01695,0.483,0.012,1.2315
59.6,0.0169,0.4815,0.012,1.2315
59.701,0.0169,0.48,0.012,1.233
59.801,0.0169,0.4785,0.012,1.2345
59.901,0.01695,0.477,0.012,1.2345
60,0.0169,0.477,0.012,1.236
60.1,0.0169,0.4755,0.012,1.2375
60.2,0.0169,0.474,0.012,1.2375
60.301,0.01685,0.4725,0.012,1.239
60.401,0.01685,0.471,0.012,1.2405
60.501,0.0169,0.4695,0.012,1.2405
60.6,0.0169,0.468,0.012,1.242
60.7,0.0169,0.4665,0.012,1.2435
60.8,0.0169,0.4665,0.012,1.2435
60.901,0.01685,0.465,0.012,1.245
61,0.0168,0.4635,0.012,1.245
61.101,0.0169,0.462,0.012,1.2465
61.2,0.01695,0.4605,0.012,1.248
61.3,0.0169,0.4605,0.012,1.248
61.4,0.01695,0.459,0.012,1.2495
61.501,0.01685,0.4575,0.012,1.2495
61.601,0.01685,0.456,0.012,1.251
61.701,0.0169,0.4545,0.012,1.2525
61.8,0.0169,0.453,0.012,1.2525
61.9,0.0169,0.453,0.0105,1.254
62,0.0169,0.4515,0.0105,1.2555
62.101,0.01685,0.45,0.012,1.2555
62.2,0.0169,0.4485,0.0105,1.257
62.3,0.0169,0.447,0.0105,1.257
62.401,0.01695,0.4455,0.0105,1.2585
62.5,0.0169,0.4455,0.0105,1.26
62.6,0.0169,0.444,0.0105,1.26
62.701,0.0169,0.4425,0.0105,1.2615
62.8,0.0169,0.441,0.0105,1.263
62.901,0.0169,0.4395,0.0105,1.2645
63,0.0169,0.438,0.0105,1.2645
63.1,0.0169,0.438,0.0105,1.266
63.2,0.0169,0.4365,0.0105,1.266
63.3,0.0169,0.435,0.0105,1.2675
63.4,0.0169,0.4335,0.0105,1.2675
63.501,0.0169,0.432,0.0105,1.269
63.6,0.0169,0.432,0.0105,1.2705
63.701,0.0169,0.4305,0.0105,1.2705
63.8,0.0169,0.4305,0.0105,1.272
63.9,0.01695,0.429,0.0105,1.2735
64.001,0.01695,0.4275,0.0105,1.275
64.1,0.01695,0.426,0.0105,1.275
64.2,0.01695,0.4245,0.0105,1.2765
64.301,0.0169,0.4245,0.0105,1.2765
64.4,0.0169,0.423,0.0105,1.278
64.499,0.01685,0.4215,0.0105,1.278
64.6,0.01695,0.42,0.0105,1.2795
64.699,0.01685,0.42,0.0105,1.281
64.8,0.01685,0.4185,0.0105,1.281
64.9,0.0169,0.417,0.0105,1.2825
64.999,0.01685,0.4155,0.0105,1.284
65.1,0.01695,0.414,0.0105,1.284
65.2,0.0169,0.414,0.0105,1.2855
65.3,0.0169,0.4125,0.009,1.287
65.4,0.0169,0.411,0.0105,1.287
65.501,0.0169,0.4095,0.0105,1.2885
65.601,0.0169,0.4095,0.0105,1.29
65.7,0.0169,0.408,0.009,1.29
65.801,0.0169,0.4065,0.0105,1.2915
65.9,0.01695,0.405,0.0105,1.293
65.999,0.01685,0.405,0.0105,1.293
66.099,0.01685,0.4035,0.0105,1.293
66.199,0.01685,0.402,0.0105,1.2945
66.3,0.01695,0.402,0.009,1.296
66.4,0.0169,0.4005,0.009,1.2975
66.501,0.01685,0.399,0.0105,1.2975
66.601,0.01685,0.399,0.009,1.299
66.7,0.01695,0.3975,0.009,1.299
66.801,0.0169,0.396,0.009,1.3005
66.9,0.01695,0.3945,0.009,1.302
66.999,0.01685,0.3945,0.009,1.302
67.1,0.0169,0.393,0.009,1.3035
67.201,0.0169,0.3915,0.009,1.3035
67.301,0.0169,0.3915,0.009,1.305
67.401,0.0169,0.39,0.009,1.3065
67.5,0.01695,0.3885,0.009,1.3065
67.601,0.0169,0.387,0.009,1.308
67.701,0.0169,0.387,0.009,1.3095
67.8,0.0169,0.3855,0.009,1.3095
67.9,0.01695,0.384,0.009,1.311
68.001,0.01685,0.384,0.009,1.311
68.101,0.0169,0.3825,0.009,1.3125
68.201,0.0169,0.381,0.009,1.314
68.301,0.01685,0.381,0.009,1.314
68.4,0.01695,0.3795,0.009,1.3155
68.5,0.01695,0.378,0.009,1.317
68.6,0.01695,0.378,0.009,1.317
68.7,0.0169,0.3765,0.009,1.3185
68.8,0.01695,0.375,0.009,1.3185
68.901,0.0169,0.375,0.009,1.32
69,0.01695,0.3735,0.009,1.3215
69.1,0.01695,0.3735,0.009,1.3215
69.2,0.01685,0.372,0.009,1.323
69.3,0.0168,0.3705,0.009,1.323
69.4,0.01695,0.3705,0.009,1.3245
69.501,0.0169,0.369,0.009,1.326
69.6,0.01695,0.3675,0.009,1.326
69.7,0.01695,0.3675,0.009,1.3275
69.8,0.0169,0.366,0.009,1.329
69.9,0.01695,0.366,0.009,1.329
69.999,0.0169,0.3645,0.009,1.3305
70.1,0.01695,0.363,0.009,1.3305
70.201,0.0169,0.363,0.009,1.332
70.3,0.01695,0.3615,0.009,1.3335
70.4,0.0169,0.36,0.009,1.3335
70.501,0.0169,0.36,0.009,1.335
70.601,0.0169,0.3585,0.009,1.335
70.7,0.0169,0.3585,0.009,1.3365
70.8,0.0169,0.357,0.009,1.3365
70.901,0.0169,0.3555,0.009,1.338
71,0.0169,0.3555,0.009,1.3395
71.101,0.0169,0.354,0.009,1.341
71.2,0.01695,0.354,0.009,1.341
71.3,0.0169,0.3525,0.009,1.3425
71.401,0.01695,0.351,0.0075,1.3425
71.501,0.01695,0.351,0.009,1.344
71.6,0.0169,0.3495,0.009,1.3455
71.701,0.01685,0.3495,0.009,1.3455
71.801,0.01695,0.348,0.0075,1.347
71.901,0.0169,0.3465,0.0075,1.347
72,0.0169,0.3465,0.0075,1.3485
72.1,0.0169,0.345,0.0075,1.3485
72.202,0.0169,0.345,0.0075,1.35
72.3,0.0169,0.3435,0.0075,1.35
72.4,0.0169,0.3435,0.0075,1.3515
72.5,0.0169,0.342,0.0075,1.353
72.601,0.0169,0.3405,0.0075,1.353
72.7,0.01695,0.3405,0.0075,1.3545
72.8,0.01685,0.339,0.0075,1.356
72.9,0.01685,0.339,0.0075,1.356
73.001,0.0169,0.3375,0.0075,1.3575
73.101,0.0169,0.3375,0.0075,1.3575
73.2,0.0169,0.336,0.0075,1.359
73.3,0.01685,0.336,0.0075,1.359
73.4,0.01685,0.3345,0.0075,1.3605
73.501,0.01695,0.3345,0.0075,1.362
73.6,0.01685,0.333,0.0075,1.362
73.7,0.01685,0.333,0.0075,1.362
73.8,0.01685,0.3315,0.0075,1.3635
73.901,0.01695,0.33,0.0075,1.365
74.001,0.0168,0.33,0.0075,1.365
74.1,0.01685,0.33,0.0075,1.3665
74.2,0.0168,0.3285,0.0075,1.368
74.301,0.0169,0.327,0.0075,1.368
74.401,0.01695,0.327,0.0075,1.3695
74.5,0.0168,0.3255,0.0075,1.3695
74.6,0.0168,0.3255,0.0075,1.371
74.701,0.01695,0.324,0.0075,1.371
74.8,0.0168,0.324,0.0075,1.3725
74.9,0.0168,0.3225,0.0075,1.3725
75,0.0168,0.3225,0.0075,1.374
75.101,0.0169,0.321,0.0075,1.3755
75.2,0.0168,0.321,0.0075,1.3755
75.3,0.0169,0.3195,0.0075,1.377
75.401,0.0169,0.3195,0.0075,1.3785
75.501,0.01685,0.318,0.0075,1.3785
75.6,0.0168,0.318,0.0075,1.3785
75.7,0.0168,0.3165,0.0075,1.38
75.8,0.01685,0.3165,0.0075,1.38
75.9,0.01685,0.315,0.0075,1.3815
75.999,0.0168,0.315,0.0075,1.3815
76.1,0.0168,0.3135,0.0075,1.383
76.2,0.01685,0.3135,0.0075,1.383
76.299,0.0168,0.312,0.0075,1.3845
76.4,0.01685,0.312,0.0075,1.386
76.5,0.0168,0.3105,0.0075,1.386
76.601,0.0168,0.3105,0.0075,1.389
76.701,0.01685,0.309,0.0075,1.389
76.8,0.0168,0.309,0.0075,1.389
76.9,0.0168,0.3075,0.0075,1.389
77.001,0.0168,0.3075,0.0075,1.392
77.1,0.01685,0.306,0.0075,1.3905
77.2,0.0168,0.306,0.0075,1.3935
77.3,0.01685,0.3045,0.0075,1.3935
77.4,0.0168,0.3045,0.0075,1.3935
77.5,0.0168,0.303,0.0075,1.395
77.6,0.0168,0.303,0.0075,1.3965
77.7,0.0168,0.303,0.0075,1.395
77.8,0.0168,0.3015,0.0075,1.3965
77.899,0.0168,0.3,0.006,1.3965
78,0.0168,0.3,0.0075,1.398
78.1,0.0168,0.3,0.0075,1.3995
78.2,0.01685,0.2985,0.006,1.401
78.299,0.0168,0.2985,0.0075,1.401
78.4,0.01685,0.297,0.0075,1.401
78.5,0.0168,0.297,0.006,1.4025
78.6,0.0168,0.2955,0.006,1.404
78.701,0.0168,0.2955,0.006,1.4055
78.801,0.01685,0.294,0.006,1.404
78.901,0.01685,0.294,0.0075,1.4055
79,0.0168,0.294,0.006,1.407
79.1,0.0168,0.2925,0.006,1.407
79.201,0.01685,0.2925,0.006,1.4085
79.3,0.01685,0.291,0.006,1.41
79.401,0.0168,0.291,0.006,1.41
79.5,0.0168,0.2895,0.006,1.4115
79.6,0.0168,0.2895,0.006,1.4115
79.701,0.01685,0.2895,0.006,1.4145
79.801,0.0168,0.288,0.006,1.4145
79.9,0.0168,0.288,0.006,1.4145
80.001,0.01685,0.2865,0.006,1.416
80.101,0.0168,0.2865,0.006,1.416
80.2,0.0168,0.285,0.006,1.4175
80.3,0.01685,0.285,0.006,1.4175
80.4,0.01685,0.285,0.006,1.419
80.501,0.0168,0.2835,0.006,1.4205
80.6,0.01685,0.2835,0.006,1.4205
80.7,0.0168,0.282,0.006,1.4205
80.8,0.0168,0.282,0.006,1.422
80.901,0.01685,0.2805,0.006,1.4235
81,0.01685,0.2805,0.006,1.4235
81.1,0.0168,0.2805,0.006,1.425
81.201,0.0168,0.279,0.006,1.425
81.301,0.01685,0.279,0.006,1.4265
81.4,0.01685,0.2775,0.006,1.4265
81.5,0.0168,0.2775,0.006,1.428
81.601,0.0168,0.276,0.006,1.4295
81.7,0.0168,0.276,0.006,1.4295
81.8,0.0168,0.276,0.006,1.4295
81.9,0.0168,0.2745,0.006,1.431
82,0.0168,0.2745,0.006,1.431
82.101,0.0168,0.273,0.006,1.4325
82.201,0.0168,0.273,0.006,1.4355
82.3,0.0168,0.273,0.006,1.434
82.4,0.0168,0.2715,0.006,1.4355
82.501,0.0168,0.2715,0.006,1.437
82.6,0.0168,0.27,0.006,1.437
82.7,0.0168,0.27,0.006,1.437
82.8,0.0168,0.27,0.006,1.4385
82.9,0.0168,0.2685,0.006,1.4385
83.003,0.01685,0.2685,0.006,1.4415
83.1,0.01685,0.267,0.006,1.4415
83.2,0.01685,0.267,0.006,1.4415
83.301,0.0168,0.267,0.006,1.4415
83.4,0.01685,0.2655,0.006,1.443
83.5,0.0168,0.2655,0.006,1.443
83.6,0.01685,0.264,0.006,1.4445
83.7,0.01685,0.264,0.006,1.4445
83.801,0.0168,0.264,0.006,1.4475
83.9,0.0168,0.2625,0.006,1.4475
84,0.01685,0.2625,0.006,1.4475
84.1,0.0168,0.261,0.006,1.449
84.2,0.0168,0.261,0.006,1.449
84.3,0.0168,0.261,0.006,1.4505
84.401,0.01685,0.2595,0.006,1.452
84.5,0.0168,0.2595,0.006,1.452
84.601,0.0168,0.258,0.006,1.4535
84.701,0.0168,0.258,0.006,1.4535
84.801,0.01675,0.258,0.006,1.4535
84.9,0.0167,0.2565,0.006,1.455
85,0.0167,0.2565,0.006,1.4565
85.1,0.0167,0.2565,0.006,1.4565
85.2,0.0167,0.255,0.006,1.4565
85.3,0.01665,0.255,0.006,1.458
85.401,0.01685,0.2535,0.006,1.461
85.5,0.01665,0.2535,0.006,1.461
85.6,0.01665,0.2535,0.006,1.461
85.7,0.01665,0.252,0.006,1.4625
85.801,0.0168,0.252,0.006,1.464
85.9,0.01665,0.2505,0.006,1.464
86,0.01665,0.2505,0.006,1.464
86.101,0.0168,0.2505,0.006,1.4655
86.201,0.01665,0.249,0.006,1.4655
86.3,0.0167,0.249,0.006,1.467
86.4,0.01665,0.249,0.006,1.467
86.5,0.01665,0.2475,0.006,1.4685
86.601,0.0168,0.2475,0.006,1.4715
86.7,0.0167,0.2475,0.006,1.47
86.8,0.01665,0.246,0.006,1.47
86.9,0.01665,0.246,0.006,1.4715
87.001,0.0168,0.246,0.006,1.473
87.1,0.0167,0.2445,0.006,1.473
87.2,0.01665,0.2445,0.006,1.4745
87.301,0.01675,0.2445,0.006,1.476
87.401,0.0167,0.243,0.006,1.476
87.5,0.0167,0.243,0.006,1.4775
87.6,0.0167,0.2415,0.006,1.4775
87.701,0.01675,0.2415,0.006,1.479
87.801,0.0167,0.2415,0.006,1.4805
87.9,0.0167,0.2415,0.006,1.4805
88,0.0167,0.24,0.006,1.4805
88.1,0.0167,0.24,0.006,1.482
88.2,0.0167,0.24,0.0045,1.482
88.3,0.01675,0.2385,0.006,1.4835
88.4,0.0167,0.2385,0.006,1.4835
88.5,0.01675,0.2385,0.006,1.485
88.599,0.01685,0.237,0.006,1.4865
88.7,0.01675,0.237,0.0045,1.4865
88.8,0.0167,0.237,0.006,1.488
88.899,0.0168,0.2355,0.006,1.488
89,0.01675,0.2355,0.006,1.488
89.1,0.01675,0.234,0.0045,1.4895
89.2,0.01675,0.234,0.006,1.4895
89.3,0.01675,0.234,0.006,1.491
89.4,0.01675,0.234,0.006,1.4925
89.5,0.01675,0.2325,0.0045,1.4925
89.601,0.0167,0.2325,0.0045,1.494
89.701,0.01675,0.2325,0.0045,1.494
89.8,0.0168,0.231,0.0045,1.4955
89.9,0.0168,0.231,0.0045,1.497
90,0.0168,0.231,0.0045,1.497
90.1,0.0168,0.2295,0.006,1.4985
90.2,0.0168,0.2295,0.0045,1.4985
90.3,0.01675,0.2295,0.0045,1.5
90.4,0.0168,0.228,0.006,1.5
90.501,0.01665,0.228,0.0045,1.5015
90.6,0.01675,0.228,0.006,1.5015
90.7,0.0168,0.2265,0.0045,1.503
90.801,0.0167,0.2265,0.0045,1.5045
90.901,0.0167,0.2265,0.0045,1.5045
91,0.0168,0.2265,0.0045,1.506
91.1,0.0168,0.225,0.0045,1.506
91.2,0.01685,0.225,0.0045,1.5075
91.3,0.0168,0.225,0.0045,1.5075
91.4,0.01685,0.2235,0.0045,1.509
91.5,0.0168,0.2235,0.0045,1.5105
91.6,0.0168,0.2235,0.0045,1.5105
91.701,0.01675,0.222,0.0045,1.512
91.8,0.0168,0.222,0.0045,1.512
91.9,0.01685,0.222,0.0045,1.5135
92,0.0168,0.2205,0.0045,1.5135
92.1,0.0168,0.2205,0.0045,1.515
92.2,0.0168,0.2205,0.0045,1.5165
92.299,0.01685,0.219,0.0045,1.5165
92.4,0.01685,0.219,0.0045,1.518
92.501,0.01685,0.219,0.0045,1.518
92.6,0.01685,0.2175,0.0045,1.5195
92.7,0.0168,0.2175,0.0045,1.5195
92.801,0.01675,0.2175,0.0045,1.521
92.899,0.01685,0.216,0.0045,1.521
92.999,0.0169,0.216,0.0045,1.5225
93.1,0.01685,0.216,0.0045,1.524
93.2,0.01685,0.216,0.0045,1.524
93.3,0.0168,0.2145,0.0045,1.5255
93.4,0.01685,0.2145,0.0045,1.527
93.5,0.01685,0.2145,0.0045,1.527
93.6,0.0168,0.2145,0.0045,1.527
93.7,0.0168,0.213,0.0045,1.5285
93.8,0.01685,0.213,0.0045,1.53
93.901,0.01685,0.213,0.0045,1.53
94,0.01685,0.2115,0.0045,1.5315
94.1,0.01685,0.2115,0.0045,1.5315
94.2,0.01685,0.2115,0.0045,1.533
94.301,0.0168,0.2115,0.0045,1.533
94.401,0.01675,0.21,0.0045,1.5345
94.501,0.01685,0.21,0.0045,1.5345
94.6,0.0168,0.21,0.0045,1.536
94.701,0.0168,0.2085,0.0045,1.536
94.8,0.01685,0.2085,0.0045,1.5375
94.9,0.01685,0.2085,0.0045,1.5375
95,0.01685,0.207,0.0045,1.539
95.1,0.01685,0.207,0.0045,1.539
95.2,0.0169,0.207,0.0045,1.5405
95.3,0.01685,0.207,0.0045,1.5405
95.401,0.0168,0.2055,0.0045,1.542
95.501,0.01685,0.2055,0.0045,1.5435
95.6,0.01685,0.2055,0.0045,1.5435
95.7,0.01685,0.2055,0.0045,1.545
95.801,0.01685,0.204,0.0045,1.545
95.9,0.01685,0.204,0.0045,1.5465
96,0.0169,0.204,0.0045,1.5465
96.101,0.0168,0.2025,0.0045,1.548
96.2,0.01685,0.2025,0.0045,1.548
96.3,0.01685,0.2025,0.0045,1.5495
96.403,0.0167,0.2025,0.0045,1.551
96.501,0.01685,0.201,0.0045,1.551
96.6,0.01685,0.201,0.0045,1.5525
96.7,0.01685,0.201,0.0045,1.5525
96.801,0.0168,0.1995,0.0045,1.5525
96.9,0.01685,0.1995,0.0045,1.554
97.001,0.01685,0.1995,0.0045,1.5555
97.1,0.01685,0.1995,0.0045,1.5555
97.2,0.0169,0.1995,0.0045,1.557
97.3,0.01685,0.198,0.0045,1.557
97.4,0.01685,0.198,0.0045,1.5585
97.501,0.0168,0.198,0.0045,1.56
97.6,0.01685,0.198,0.0045,1.56
97.699,0.0169,0.1965,0.0045,1.5615
97.8,0.01685,0.1965,0.0045,1.5615
97.901,0.01685,0.1965,0.0045,1.563
98,0.01685,0.195,0.0045,1.563
98.101,0.0168,0.195,0.0045,1.5645
98.2,0.01685,0.195,0.0045,1.5645
98.299,0.0169,0.195,0.0045,1.566
98.4,0.0169,0.195,0.0045,1.566
98.501,0.0168,0.1935,0.0045,1.5675
98.6,0.01685,0.1935,0.0045,1.5675
98.7,0.01685,0.1935,0.0045,1.569
98.8,0.01685,0.192,0.0045,1.5705
98.9,0.01685,0.192,0.0045,1.5705
99,0.01685,0.192,0.0045,1.572
99.1,0.01685,0.192,0.0045,1.572
99.201,0.0168,0.192,0.0045,1.5735
99.3,0.0169,0.1905,0.0045,1.5735
99.4,0.0169,0.1905,0.0045,1.575
99.501,0.0168,0.1905,0.0045,1.575
99.6,0.0169,0.1905,0.0045,1.5765
99.7,0.0169,0.189,0.0045,1.5765
99.801,0.01685,0.189,0.0045,1.578
99.9,0.01685,0.189,0.0045,1.578
100,0.0169,0.189,0.0045,1.5795
100.101,0.01685,0.189,0.0045,1.581
100.2,0.0169,0.1875,0.0045,1.581
100.301,0.0168,0.1875,0.0045,1.5825
100.401,0.01685,0.1875,0.0045,1.5825
100.501,0.0168,0.186,0.0045,1.584
100.6,0.0169,0.186,0.0045,1.584
100.7,0.0169,0.186,0.0045,1.5855
100.8,0.0169,0.186,0.0045,1.5855
100.9,0.0169,0.186,0.0045,1.587
101.001,0.01685,0.1845,0.0045,1.587
101.1,0.0169,0.1845,0.0045,1.5885
101.2,0.0169,0.1845,0.0045,1.5885
101.3,0.0169,0.183,0.0045,1.59
101.4,0.0169,0.183,0.0045,1.59
101.501,0.01685,0.183,0.0045,1.5915
101.6,0.0169,0.183,0.0045,1.5915
101.7,0.0169,0.183,0.0045,1.593
101.801,0.01685,0.1815,0.0045,1.5945
101.901,0.0168,0.1815,0.0045,1.5945
102.001,0.01685,0.1815,0.003,1.596
102.1,0.0169,0.1815,0.0045,1.596
102.201,0.0169,0.1815,0.0045,1.5975
102.301,0.0169,0.18,0.0045,1.5975
102.4,0.0169,0.18,0.0045,1.599
102.5,0.0169,0.18,0.0045,1.599
102.601,0.01685,0.18,0.003,1.6005
102.7,0.0169,0.1785,0.0045,1.602
102.801,0.01685,0.1785,0.0045,1.602
102.9,0.0169,0.1785,0.003,1.602
102.999,0.0169,0.1785,0.003,1.6035
103.099,0.0169,0.177,0.0045,1.605
103.2,0.01685,0.177,0.0045,1.605
103.299,0.0169,0.177,0.003,1.6065
103.4,0.0169,0.177,0.0045,1.6065
103.501,0.01685,0.177,0.003,1.608
103.6,0.01675,0.1755,0.003,1.608
103.7,0.0169,0.1755,0.003,1.6095
103.8,0.01685,0.1755,0.003,1.6095
103.9,0.0169,0.1755,0.003,1.611
104,0.0169,0.174,0.003,1.611
104.1,0.0169,0.174,0.003,1.6125
104.201,0.01685,0.174,0.003,1.6125
104.3,0.0169,0.174,0.003,1.614
104.401,0.01685,0.174,0.003,1.614
104.5,0.0169,0.1725,0.003,1.6155
104.601,0.01685,0.1725,0.003,1.617
104.701,0.0169,0.1725,0.003,1.617
104.8,0.0169,0.1725,0.003,1.6185
104.901,0.0169,0.171,0.003,1.6185
105,0.0169,0.171,0.003,1.62
105.1,0.0169,0.171,0.003,1.62
105.2,0.0169,0.171,0.003,1.6215
105.301,0.01685,0.171,0.003,1.6215
105.4,0.01685,0.1695,0.003,1.623
105.499,0.0169,0.1695,0.003,1.623
105.6,0.0169,0.1695,0.003,1.6245
105.7,0.0169,0.1695,0.003,1.626
105.8,0.0169,0.1695,0.003,1.626
105.901,0.0168,0.168,0.003,1.6275
106,0.0169,0.168,0.003,1.629
106.1,0.0169,0.168,0.003,1.629
106.199,0.0169,0.168,0.003,1.629
106.3,0.0169,0.168,0.003,1.6305
106.4,0.0169,0.1665,0.003,1.6305
106.5,0.0169,0.1665,0.003,1.632
106.6,0.0169,0.1665,0.003,1.632
106.7,0.0169,0.1665,0.003,1.632
106.801,0.0168,0.1665,0.003,1.632
106.901,0.01665,0.165,0.003,1.6335
107,0.0169,0.165,0.003,1.632
107.1,0.01685,0.165,0.003,1.6335
107.2,0.01685,0.165,0.003,1.6335
107.3,0.0169,0.165,0.003,1.6335
107.4,0.0169,0.165,0.003,1.6335
107.5,0.0169,0.165,0.003,1.632
107.6,0.0169,0.165,0.003,1.632
107.7,0.0169,0.1635,0.003,1.632
107.801,0.01685,0.1635,0.003,1.632
107.901,0.0168,0.1635,0.003,1.632
108,0.01685,0.1635,0.003,1.632
108.1,0.01685,0.1635,0.003,1.632
108.201,0.01685,0.1635,0.003,1.632
108.3,0.01685,0.1635,0.003,1.6305
108.4,0.01685,0.1635,0.003,1.6305
108.5,0.01685,0.1635,0.003,1.6305
108.6,0.0169,0.1635,0.003,1.6305
108.699,0.0169,0.1635,0.003,1.6305
108.8,0.01685,0.1635,0.003,1.629
108.9,0.01685,0.1635,0.003,1.629
109,0.01685,0.1635,0.003,1.629
109.1,0.0169,0.1635,0.003,1.6275
109.2,0.01685,0.1635,0.003,1.6275
109.3,0.01685,0.1635,0.003,1.6275
109.4,0.01685,0.1635,0.003,1.626
109.499,0.0169,0.1635,0.003,1.626
109.6,0.01685,0.1635,0.003,1.626
109.7,0.01685,0.1635,0.003,1.626
109.801,0.0168,0.1635,0.003,1.6245
109.9,0.01685,0.1635,0.003,1.6245
110,0.01685,0.1635,0.003,1.6245
110.1,0.01685,0.1635,0.003,1.623
110.199,0.0169,0.165,0.003,1.623
110.3,0.01685,0.165,0.003,1.623
110.4,0.0169,0.165,0.003,1.6215
110.501,0.0168,0.165,0.003,1.6215
110.601,0.01685,0.165,0.003,1.6215
110.7,0.01685,0.165,0.003,1.62
110.8,0.01685,0.165,0.003,1.62
110.9,0.01685,0.165,0.003,1.62
111,0.01685,0.165,0.003,1.6185
111.101,0.0168,0.165,0.003,1.6185
111.2,0.0168,0.165,0.003,1.617
111.301,0.0168,0.1665,0.003,1.617
111.401,0.0168,0.1665,0.003,1.6155
111.5,0.01685,0.1665,0.003,1.6155
111.601,0.0168,0.1665,0.003,1.6155
111.701,0.01685,0.1665,0.003,1.6155
111.8,0.01685,0.1665,0.003,1.614
111.9,0.01685,0.1665,0.003,1.614
112,0.01685,0.1665,0.003,1.614
112.101,0.01675,0.168,0.003,1.6125
112.2,0.01685,0.168,0.003,1.6125
112.3,0.01685,0.168,0.003,1.611
112.4,0.0169,0.168,0.003,1.611
112.5,0.01685,0.168,0.003,1.6095
112.599,0.0169,0.168,0.003,1.6095
112.7,0.01685,0.168,0.003,1.6095
112.801,0.0167,0.168,0.003,1.608
112.9,0.0168,0.168,0.003,1.608
113.001,0.01675,0.1695,0.003,1.6065
113.101,0.01675,0.1695,0.003,1.6065
113.2,0.0168,0.1695,0.003,1.6065
113.3,0.01685,0.1695,0.003,1.605
113.4,0.01685,0.1695,0.003,1.605
113.5,0.0168,0.1695,0.003,1.6035
113.599,0.0169,0.1695,0.003,1.6035
113.7,0.01685,0.171,0.003,1.602
113.8,0.0168,0.171,0.003,1.602
113.901,0.0167,0.171,0.003,1.602
114,0.0168,0.171,0.003,1.6005
114.1,0.0168,0.171,0.003,1.6005
114.199,0.01685,0.171,0.003,1.6005
114.3,0.0168,0.1725,0.003,1.599
114.401,0.01665,0.1725,0.003,1.599
114.5,0.0168,0.1725,0.003,1.5975
114.6,0.0168,0.1725,0.003,1.5975
114.7,0.0168,0.1725,0.003,1.5975
114.801,0.01665,0.1725,0.003,1.596
114.901,0.0167,0.174,0.003,1.596
115,0.01675,0.174,0.003,1.5945
115.1,0.01675,0.174,0.003,1.5945
115.2,0.0168,0.174,0.003,1.593
115.3,0.01675,0.174,0.003,1.593
115.4,0.01675,0.174,0.003,1.593
115.501,0.01675,0.174,0.003,1.5915
115.6,0.01675,0.174,0.003,1.5915
115.7,0.01675,0.1755,0.003,1.59
115.8,0.01675,0.1755,0.003,1.59
115.9,0.0167,0.1755,0.003,1.5885
116,0.0167,0.1755,0.003,1.5885
116.1,0.01675,0.177,0.003,1.5885
116.2,0.0167,0.177,0.003,1.5885
116.301,0.0167,0.177,0.003,1.587
116.4,0.0167,0.177,0.003,1.5855
116.501,0.0168,0.177,0.003,1.587
116.6,0.0167,0.177,0.003,1.5855
116.699,0.0168,0.177,0.003,1.584
116.8,0.0167,0.1785,0.003,1.584
116.9,0.0167,0.1785,0.003,1.584
117,0.0167,0.1785,0.003,1.584
117.1,0.01665,0.1785,0.003,1.5825
117.2,0.0167,0.1785,0.003,1.5825
117.3,0.0167,0.18,0.003,1.581
117.401,0.0168,0.18,0.003,1.581
117.5,0.0167,0.18,0.003,1.5795
117.6,0.0167,0.18,0.003,1.5795
117.701,0.0168,0.18,0.003,1.5795
117.801,0.0168,0.18,0.003,1.578
117.901,0.01685,0.1815,0.003,1.578
118,0.01665,0.1815,0.003,1.578
118.1,0.01675,0.1815,0.003,1.5765
118.2,0.01665,0.1815,0.003,1.5765
118.301,0.01665,0.1815,0.003,1.575
118.4,0.0166,0.1815,0.003,1.575
118.501,0.01685,0.183,0.003,1.575
118.6,0.01665,0.183,0.003,1.5735
118.7,0.01665,0.183,0.003,1.5735
118.8,0.01665,0.183,0.003,1.572
118.9,0.01665,0.183,0.003,1.572
119.001,0.01685,0.1845,0.003,1.572
119.1,0.01665,0.1845,0.003,1.5705
119.2,0.01665,0.1845,0.0045,1.5705
119.301,0.01685,0.1845,0.003,1.5705
119.4,0.0167,0.1845,0.0045,1.569
119.5,0.0167,0.186,0.0045,1.5675
119.6,0.0167,0.186,0.0045,1.566
119.7,0.0167,0.186,0.003,1.566
119.8,0.0167,0.186,0.0045,1.566
119.9,0.01675,0.186,0.0045,1.566
120,0.01675,0.1875,0.003,1.5645
120.101,0.0168,0.1875,0.003,1.5645
120.2,0.0168,0.1875,0.003,1.563
120.3,0.01675,0.1875,0.003,1.563
120.4,0.01675,0.1875,0.0045,1.5615
120.501,0.0168,0.1875,0.003,1.563
120.601,0.01685,0.189,0.003,1.5615
120.7,0.0168,0.189,0.003,1.56
120.8,0.0168,0.189,0.003,1.56
120.901,0.0168,0.189,0.003,1.56
121,0.0168,0.189,0.0045,1.5585
121.1,0.0168,0.1905,0.0045,1.557
121.2,0.0168,0.1905,0.0045,1.557
121.301,0.01685,0.1905,0.0045,1.557
121.4,0.0168,0.1905,0.003,1.557
121.501,0.0168,0.1905,0.0045,1.5555
121.601,0.0168,0.1905,0.0045,1.5555
121.7,0.0168,0.192,0.0045,1.554
121.8,0.0168,0.192,0.0045,1.554
121.9,0.0168,0.192,0.003,1.5525
122.001,0.01685,0.192,0.003,1.5525
122.1,0.0168,0.192,0.003,1.551
122.2,0.0168,0.1935,0.0045,1.551
122.3,0.0168,0.1935,0.003,1.551
122.4,0.0168,0.1935,0.0045,1.5495
122.501,0.0168,0.1935,0.0045,1.5495
122.6,0.0168,0.1935,0.0045,1.548
122.699,0.0167,0.195,0.0045,1.548
122.8,0.0168,0.195,0.0045,1.5465
122.901,0.0168,0.195,0.0045,1.548
123.001,0.01685,0.195,0.0045,1.5465
123.102,0.01685,0.195,0.0045,1.5465
123.201,0.01685,0.195,0.0045,1.545
123.3,0.0168,0.1965,0.0045,1.5435
123.4,0.0168,0.1965,0.0045,1.5435
123.5,0.0168,0.1965,0.0045,1.5435
123.6,0.01685,0.1965,0.0045,1.542
123.7,0.0168,0.198,0.0045,1.542
123.8,0.0168,0.198,0.0045,1.5405
123.9,0.0168,0.198,0.0045,1.5405
124,0.01685,0.198,0.0045,1.539
124.1,0.0168,0.198,0.0045,1.539
124.2,0.0168,0.1995,0.0045,1.539
124.3,0.01685,0.1995,0.0045,1.539
124.401,0.0168,0.1995,0.0045,1.5375
124.5,0.01685,0.1995,0.0045,1.5375
124.6,0.0168,0.1995,0.0045,1.536
124.701,0.01685,0.201,0.0045,1.536
124.801,0.01685,0.201,0.0045,1.536
124.9,0.01665,0.201,0.0045,1.5345
125,0.0168,0.201,0.0045,1.5345
125.1,0.01685,0.201,0.0045,1.533
125.201,0.0168,0.2025,0.0045,1.5345
125.301,0.0168,0.2025,0.0045,1.533
125.4,0.0168,0.2025,0.0045,1.5315
125.5,0.0168,0.2025,0.0045,1.533
125.599,0.01665,0.204,0.0045,1.53
125.7,0.0168,0.204,0.0045,1.53
125.799,0.01665,0.204,0.0045,1.53
125.9,0.0168,0.204,0.0045,1.5285
126,0.01685,0.204,0.0045,1.5285
126.1,0.01685,0.204,0.0045,1.527
126.2,0.01685,0.2055,0.0045,1.527
126.301,0.0168,0.2055,0.0045,1.527
126.4,0.0168,0.2055,0.0045,1.5255
126.5,0.01685,0.2055,0.0045,1.524
126.6,0.0168,0.207,0.0045,1.524
126.7,0.01685,0.207,0.0045,1.5225
126.799,0.01665,0.207,0.0045,1.5225
126.9,0.0168,0.207,0.0045,1.5225
127.001,0.0168,0.2085,0.0045,1.524
127.1,0.0168,0.2085,0.0045,1.521
127.201,0.0168,0.2085,0.0045,1.521
127.301,0.0168,0.2085,0.0045,1.521
127.4,0.01685,0.2085,0.0045,1.5195
127.501,0.0168,0.21,0.0045,1.518
127.6,0.01685,0.21,0.0045,1.518
127.701,0.0168,0.21,0.0045,1.5165
127.8,0.0168,0.21,0.0045,1.5165
127.9,0.01685,0.2115,0.0045,1.515
128,0.0168,0.2115,0.0045,1.515
128.1,0.0168,0.2115,0.0045,1.515
128.2,0.0168,0.2115,0.0045,1.5135
128.299,0.01665,0.2115,0.0045,1.512
128.4,0.0168,0.213,0.0045,1.512
128.5,0.0168,0.213,0.0045,1.512
128.6,0.0168,0.213,0.0045,1.5105
128.701,0.01685,0.213,0.0045,1.512
128.8,0.0168,0.2145,0.0045,1.5105
128.9,0.0168,0.2145,0.0045,1.509
129.001,0.01685,0.2145,0.0045,1.509
129.1,0.0168,0.2145,0.0045,1.5075
129.2,0.0168,0.2145,0.0045,1.5075
129.3,0.01685,0.216,0.0045,1.5075
129.401,0.0168,0.216,0.0045,1.506
129.5,0.0168,0.216,0.0045,1.506
129.601,0.01685,0.216,0.0045,1.506
129.7,0.01685,0.216,0.0045,1.5045
129.801,0.01685,0.2175,0.0045,1.5045
129.901,0.0168,0.2175,0.0045,1.503
130.001,0.01685,0.2175,0.0045,1.503
130.1,0.0168,0.2175,0.0045,1.5015
130.2,0.0168,0.219,0.0045,1.5015
130.301,0.0168,0.219,0.0045,1.5015
130.4,0.0168,0.219,0.0045,1.5
130.5,0.0168,0.219,0.0045,1.4985
130.6,0.0168,0.219,0.0045,1.5
130.7,0.0168,0.2205,0.0045,1.497
130.801,0.0168,0.2205,0.0045,1.4985
130.9,0.0168,0.2205,0.0045,1.4955
131.001,0.0168,0.222,0.0045,1.497
131.1,0.01675,0.222,0.0045,1.4955
131.2,0.0168,0.222,0.0045,1.494
131.3,0.01675,0.222,0.0045,1.494
131.4,0.01675,0.222,0.0045,1.494
131.5,0.01675,0.2235,0.0045,1.4925
131.601,0.01685,0.2235,0.0045,1.4925
131.7,0.0167,0.2235,0.0045,1.491
131.799,0.0167,0.2235,0.0045,1.4895
131.901,0.0168,0.225,0.0045,1.491
131.999,0.0167,0.225,0.0045,1.4895
132.1,0.01665,0.225,0.0045,1.4895
132.201,0.0167,0.225,0.0045,1.4895
132.3,0.0168,0.225,0.0045,1.4895
132.4,0.01665,0.2265,0.0045,1.488
132.499,0.01675,0.2265,0.0045,1.4865
132.599,0.01675,0.2265,0.0045,1.4865
132.7,0.01665,0.2265,0.0045,1.4865
132.801,0.0168,0.228,0.0045,1.485
132.901,0.0168,0.228,0.0045,1.485
133,0.01665,0.228,0.0045,1.4835
133.1,0.01665,0.228,0.0045,1.4835
133.2,0.01665,0.2295,0.0045,1.482
133.3,0.01665,0.2295,0.0045,1.482
133.4,0.01665,0.2295,0.0045,1.4805
133.501,0.0168,0.2295,0.0045,1.4805
133.6,0.01665,0.2295,0.0045,1.4805
133.7,0.01665,0.231,0.0045,1.479
133.799,0.01675,0.231,0.0045,1.4775
133.9,0.0167,0.231,0.0045,1.4775
134,0.0167,0.2325,0.0045,1.4775
134.1,0.01665,0.2325,0.0045,1.476
134.2,0.01665,0.2325,0.0045,1.476
134.3,0.0167,0.2325,0.0045,1.476
134.399,0.01665,0.234,0.0045,1.4745
134.501,0.01675,0.234,0.0045,1.4745
134.6,0.0167,0.234,0.0045,1.473
134.699,0.0168,0.234,0.0045,1.473
134.799,0.0168,0.234,0.0045,1.4715
134.9,0.0167,0.2355,0.006,1.4715
135,0.0167,0.2355,0.0045,1.4715
135.1,0.0167,0.2355,0.0045,1.47
135.2,0.0167,0.237,0.0045,1.47
135.3,0.0167,0.237,0.0045,1.47
135.4,0.0167,0.237,0.0045,1.4685
135.5,0.0167,0.237,0.006,1.4685
135.6,0.0167,0.2385,0.0045,1.467
135.701,0.0167,0.2385,0.0045,1.467
135.801,0.01675,0.2385,0.0045,1.4655
135.9,0.0167,0.2385,0.006,1.4655
136.001,0.01675,0.24,0.006,1.4655
136.1,0.01675,0.24,0.0045,1.464
136.2,0.01675,0.24,0.006,1.464
136.3,0.01675,0.24,0.006,1.4625
136.4,0.01675,0.24,0.006,1.4625
136.5,0.01675,0.2415,0.006,1.4625
136.6,0.01675,0.2415,0.006,1.461
136.7,0.01675,0.2415,0.006,1.461
136.801,0.01665,0.2415,0.0045,1.461
136.9,0.0168,0.2415,0.006,1.4595
137,0.0168,0.243,0.006,1.4595
137.1,0.01675,0.243,0.006,1.458
137.2,0.0168,0.243,0.0045,1.458
137.301,0.01665,0.243,0.0045,1.458
137.401,0.0167,0.2445,0.006,1.4565
137.501,0.01665,0.2445,0.0045,1.4565
137.6,0.0168,0.2445,0.006,1.455
137.7,0.0168,0.2445,0.006,1.455
137.8,0.0168,0.246,0.006,1.4535
137.901,0.0167,0.246,0.006,1.4535
138.001,0.0167,0.246,0.006,1.4535
138.1,0.0168,0.246,0.006,1.452
138.2,0.0168,0.2475,0.006,1.452
138.299,0.01685,0.2475,0.006,1.452
138.4,0.0168,0.2475,0.006,1.4505
138.501,0.01675,0.249,0.006,1.4505
138.6,0.0168,0.249,0.006,1.449
138.699,0.01685,0.249,0.006,1.449
138.8,0.01685,0.249,0.006,1.449
138.9,0.0168,0.2505,0.006,1.4475
139,0.0168,0.2505,0.006,1.4475
139.101,0.01675,0.2505,0.006,1.446
139.201,0.0168,0.2505,0.006,1.446
139.3,0.0168,0.252,0.006,1.446
139.4,0.01685,0.252,0.006,1.4445
139.501,0.01675,0.252,0.006,1.4445
139.601,0.01665,0.252,0.006,1.4445
139.7,0.01685,0.2535,0.006,1.443
139.8,0.01685,0.2535,0.006,1.443
139.9,0.0168,0.2535,0.006,1.4415
140.001,0.0168,0.255,0.006,1.4415
140.1,0.01685,0.255,0.006,1.4415
140.2,0.0168,0.255,0.006,1.4415
140.3,0.01685,0.255,0.006,1.44
140.4,0.01685,0.2565,0.006,1.44
140.5,0.01685,0.2565,0.006,1.4385
140.599,0.0169,0.2565,0.006,1.4385
140.7,0.01685,0.2565,0.006,1.437
140.8,0.01685,0.258,0.006,1.437
140.901,0.01685,0.258,0.006,1.4355
141.001,0.0168,0.258,0.006,1.4355
141.101,0.0168,0.258,0.006,1.4355
141.2,0.01685,0.2595,0.006,1.434
141.301,0.0168,0.2595,0.006,1.434
141.4,0.0169,0.2595,0.006,1.434
141.5,0.01685,0.2595,0.006,1.4325
141.6,0.01685,0.261,0.006,1.4325
141.701,0.01685,0.261,0.006,1.431
141.802,0.01675,0.261,0.006,1.431
141.9,0.0169,0.2625,0.006,1.431
142,0.01685,0.2625,0.006,1.4295
142.1,0.01685,0.2625,0.006,1.4295
142.2,0.01685,0.2625,0.006,1.4295
142.3,0.0169,0.264,0.006,1.428
142.401,0.01685,0.264,0.006,1.428
142.5,0.01685,0.264,0.006,1.4265
142.601,0.01685,0.264,0.006,1.4265
142.7,0.0169,0.2655,0.006,1.4265
142.8,0.0169,0.2655,0.006,1.425
142.9,0.0169,0.2655,0.006,1.425
143.001,0.01685,0.267,0.006,1.4235
143.1,0.0169,0.267,0.006,1.4235
143.2,0.0169,0.267,0.006,1.4235
143.3,0.0169,0.267,0.006,1.422
143.401,0.0169,0.2685,0.006,1.422
143.5,0.0169,0.2685,0.006,1.422
143.6,0.0169,0.2685,0.006,1.4205
143.701,0.01685,0.27,0.006,1.419
143.8,0.0169,0.27,0.006,1.419
143.9,0.0169,0.27,0.006,1.419
144,0.0169,0.27,0.006,1.419
144.1,0.01695,0.2715,0.006,1.4175
144.201,0.0169,0.2715,0.006,1.4175
144.3,0.0169,0.2715,0.006,1.416
144.4,0.0169,0.2715,0.006,1.416
144.5,0.0169,0.273,0.006,1.416
144.6,0.0169,0.273,0.006,1.4145
144.7,0.01695,0.273,0.006,1.4145
144.8,0.0169,0.2745,0.006,1.413
144.9,0.01695,0.2745,0.006,1.413
145,0.0169,0.2745,0.006,1.413
145.1,0.0169,0.276,0.006,1.4115
145.2,0.01695,0.276,0.006,1.4115
145.3,0.01695,0.276,0.006,1.41
145.399,0.01685,0.276,0.006,1.41
145.5,0.0169,0.2775,0.006,1.41
145.6,0.01695,0.2775,0.006,1.4085
145.701,0.0169,0.2775,0.006,1.4085
145.801,0.0169,0.2775,0.006,1.4085
145.9,0.01695,0.279,0.006,1.407
145.999,0.0168,0.279,0.006,1.407
146.1,0.0169,0.279,0.006,1.407
146.201,0.0169,0.2805,0.006,1.4055
146.3,0.01695,0.2805,0.006,1.4055
146.401,0.0169,0.2805,0.006,1.404
146.5,0.0169,0.282,0.006,1.404
146.6,0.0169,0.282,0.006,1.404
146.701,0.0169,0.282,0.006,1.4025
146.8,0.0169,0.282,0.006,1.4025
146.901,0.0169,0.2835,0.006,1.401
147,0.0169,0.2835,0.006,1.401
147.1,0.0169,0.2835,0.006,1.401
147.2,0.0169,0.285,0.0075,1.3995
147.3,0.0169,0.285,0.006,1.3995
147.401,0.0169,0.285,0.006,1.398
147.5,0.01685,0.2865,0.006,1.398
147.6,0.0169,0.2865,0.006,1.398
147.7,0.0169,0.2865,0.006,1.3965
147.801,0.01695,0.288,0.006,1.3965
147.9,0.0169,0.288,0.006,1.3965
148,0.0169,0.288,0.0075,1.395
148.1,0.0169,0.288,0.0075,1.395
148.2,0.0169,0.2895,0.006,1.395
148.3,0.01685,0.2895,0.006,1.3935
148.401,0.01695,0.2895,0.0075,1.3935
148.5,0.01685,0.2895,0.0075,1.392
148.6,0.0169,0.2895,0.006,1.3935
148.701,0.0169,0.291,0.0075,1.392
148.802,0.01685,0.291,0.0075,1.3905
148.9,0.01685,0.291,0.0075,1.3905
149,0.0168,0.2925,0.0075,1.3905
149.101,0.0169,0.2925,0.0075,1.389
149.2,0.0168,0.2925,0.0075,1.389
149.301,0.0169,0.294,0.006,1.392
149.4,0.0168,0.294,0.006,1.389
149.499,0.0168,0.294,0.0075,1.3875
149.599,0.0169,0.2955,0.0075,1.3875
149.7,0.0169,0.2955,0.0075,1.386
149.8,0.01685,0.2955,0.0075,1.386
149.9,0.0168,0.2955,0.0075,1.386
150,0.0168,0.297,0.0075,1.3845
150.1,0.0168,0.297,0.0075,1.3845
150.201,0.0169,0.297,0.0075,1.383
150.301,0.0168,0.2985,0.0075,1.383
150.4,0.01695,0.2985,0.0075,1.3815
150.5,0.01685,0.2985,0.0075,1.383
150.6,0.0168,0.2985,0.0075,1.3815
150.701,0.0169,0.3,0.0075,1.38
150.801,0.0169,0.3,0.0075,1.38
150.901,0.0169,0.3,0.0075,1.38
151,0.01685,0.3015,0.0075,1.38
151.1,0.0168,0.3015,0.0075,1.3785
151.2,0.0168,0.3015,0.0075,1.3785
151.3,0.0168,0.303,0.0075,1.3785
151.4,0.0168,0.303,0.0075,1.377
151.501,0.0169,0.303,0.0075,1.3755
151.6,0.0168,0.3045,0.0075,1.377
151.7,0.0168,0.3045,0.0075,1.3755
151.8,0.0168,0.3045,0.0075,1.3755
151.901,0.0169,0.306,0.0075,1.374
152,0.0168,0.306,0.0075,1.374
152.1,0.01685,0.306,0.0075,1.374
152.2,0.0168,0.306,0.0075,1.3725
152.3,0.0168,0.3075,0.0075,1.3725
152.4,0.0168,0.3075,0.0075,1.371
152.5,0.0168,0.3075,0.0075,1.371
152.6,0.0168,0.309,0.0075,1.371
152.701,0.01685,0.309,0.0075,1.3695
152.801,0.01685,0.309,0.0075,1.368
152.9,0.0168,0.3105,0.0075,1.3695
153,0.0168,0.3105,0.0075,1.3695
153.1,0.0168,0.3105,0.0075,1.368
153.2,0.01685,0.3105,0.0075,1.3665
153.3,0.0168,0.312,0.0075,1.368
153.401,0.01685,0.312,0.0075,1.365
153.5,0.0168,0.312,0.0075,1.3665
153.6,0.01685,0.3135,0.0075,1.365
153.701,0.01685,0.3135,0.0075,1.3635
153.8,0.0168,0.3135,0.0075,1.365
153.901,0.0168,0.315,0.0075,1.3635
154,0.0168,0.315,0.0075,1.3635
154.101,0.01685,0.315,0.0075,1.362
154.201,0.0168,0.3165,0.0075,1.362
154.3,0.0168,0.3165,0.0075,1.362
154.401,0.0168,0.3165,0.0075,1.3605
154.5,0.0168,0.318,0.0075,1.3605
154.6,0.0168,0.318,0.0075,1.3605
154.701,0.0169,0.318,0.0075,1.3575
154.8,0.0168,0.318,0.0075,1.359
154.9,0.01685,0.3195,0.0075,1.3575
155,0.0168,0.3195,0.0075,1.3575
155.101,0.0168,0.3195,0.0075,1.356
155.2,0.0168,0.321,0.0075,1.356
155.3,0.0168,0.321,0.0075,1.356
155.4,0.01685,0.321,0.0075,1.356
155.501,0.0168,0.3225,0.0075,1.3545
155.6,0.01685,0.3225,0.0075,1.3545
155.7,0.0168,0.324,0.0075,1.3545
155.8,0.0168,0.324,0.0075,1.353
155.901,0.0168,0.324,0.0075,1.3515
156,0.0168,0.324,0.0075,1.353
156.1,0.0168,0.3255,0.0075,1.3515
156.201,0.0168,0.3255,0.0075,1.35
156.3,0.0168,0.3255,0.0075,1.3515
156.401,0.0169,0.327,0.0075,1.3485
156.5,0.0168,0.327,0.0075,1.35
156.6,0.0168,0.327,0.0075,1.3485
156.701,0.01685,0.3285,0.0075,1.3485
156.8,0.01685,0.3285,0.0075,1.3485
156.9,0.0168,0.33,0.0075,1.347
157.001,0.0168,0.33,0.0075,1.347
157.1,0.0168,0.33,0.0075,1.347
157.2,0.0168,0.3315,0.0075,1.3455
157.3,0.01685,0.3315,0.0075,1.347
157.4,0.0168,0.3315,0.0075,1.3455
157.499,0.0168,0.333,0.0075,1.3455
157.6,0.0168,0.333,0.0075,1.344
157.7,0.01685,0.333,0.0075,1.344
157.8,0.0168,0.3345,0.0075,1.3425
157.9,0.0168,0.3345,0.0075,1.3425
158,0.0168,0.3345,0.0075,1.3425
158.101,0.0168,0.336,0.0075,1.341
158.2,0.0168,0.336,0.0075,1.341
158.3,0.0168,0.336,0.0075,1.341
158.4,0.0168,0.336,0.0075,1.341
158.501,0.0168,0.3375,0.0075,1.3395
158.6,0.0168,0.3375,0.0075,1.3395
158.701,0.0168,0.3375,0.009,1.338
158.8,0.0168,0.339,0.009,1.338
158.9,0.0168,0.339,0.0075,1.3365
159,0.0168,0.339,0.009,1.338
159.101,0.01685,0.339,0.0075,1.3365
159.2,0.0168,0.3405,0.009,1.3365
159.3,0.0168,0.3405,0.0075,1.335
159.401,0.0168,0.342,0.0075,1.3335
159.501,0.0168,0.342,0.0075,1.3335
159.6,0.0168,0.342,0.0075,1.3335
159.7,0.0168,0.342,0.009,1.3335
159.799,0.0168,0.3435,0.009,1.3335
159.9,0.0168,0.3435,0.009,1.332
160.001,0.0168,0.345,0.009,1.3305
160.1,0.0168,0.345,0.009,1.3305
160.201,0.0168,0.345,0.009,1.3305
160.3,0.0168,0.3465,0.009,1.3305
160.4,0.0168,0.3465,0.0075,1.329
160.5,0.0168,0.3465,0.009,1.329
160.601,0.0168,0.348,0.009,1.3275
160.7,0.0168,0.348,0.009,1.3275
160.799,0.0168,0.348,0.009,1.3275
160.9,0.0168,0.3495,0.009,1.3275
161,0.0168,0.3495,0.0075,1.326
161.1,0.0168,0.351,0.009,1.326
161.2,0.0168,0.351,0.009,1.326
161.3,0.01685,0.351,0.009,1.3245
161.4,0.0168,0.351,0.009,1.3245
161.499,0.0168,0.3525,0.009,1.3245
161.6,0.0168,0.3525,0.009,1.323
161.7,0.0168,0.3525,0.009,1.323
161.8,0.01685,0.354,0.009,1.323
161.9,0.0168,0.354,0.009,1.3215
162.001,0.0168,0.3555,0.009,1.3215
162.1,0.0168,0.3555,0.009,1.32
162.2,0.0168,0.3555,0.009,1.32
162.3,0.0168,0.357,0.009,1.32
162.4,0.0168,0.357,0.009,1.3185
162.5,0.0168,0.357,0.009,1.3185
162.6,0.0168,0.3585,0.009,1.3185
162.7,0.0168,0.3585,0.009,1.3185
162.8,0.0168,0.36,0.009,1.317
162.9,0.0168,0.36,0.009,1.317
162.999,0.0168,0.36,0.009,1.317
163.101,0.0168,0.3615,0.009,1.3155
163.2,0.0168,0.3615,0.009,1.3155
163.3,0.0168,0.3615,0.009,1.3155
163.401,0.0168,0.363,0.009,1.314
163.501,0.0168,0.363,0.009,1.3125
163.6,0.0168,0.363,0.009,1.314
163.701,0.0168,0.3645,0.009,1.3125
163.8,0.0168,0.3645,0.009,1.3125
163.9,0.0168,0.366,0.009,1.3125
164,0.0168,0.366,0.009,1.311
164.101,0.0168,0.366,0.009,1.3095
164.2,0.0168,0.366,0.009,1.311
164.3,0.0168,0.3675,0.009,1.3095
164.401,0.0168,0.3675,0.009,1.308
164.501,0.0168,0.3675,0.009,1.308
164.601,0.0168,0.369,0.009,1.308
164.7,0.0168,0.369,0.009,1.308
164.8,0.0168,0.3705,0.009,1.308
164.9,0.01665,0.3705,0.009,1.308
165,0.0168,0.3705,0.009,1.3065
165.099,0.0166,0.372,0.009,1.3065
165.2,0.0168,0.372,0.009,1.3065
165.3,0.0168,0.372,0.009,1.305
165.4,0.0168,0.3735,0.009,1.305
165.501,0.0168,0.3735,0.009,1.3035
165.6,0.01685,0.3735,0.009,1.3035
165.7,0.0168,0.375,0.009,1.3035
165.8,0.01685,0.375,0.009,1.302
165.9,0.0168,0.3765,0.009,1.302
166,0.0168,0.3765,0.009,1.302
166.1,0.01675,0.3765,0.009,1.3005
166.2,0.01675,0.378,0.009,1.3005
166.3,0.0168,0.378,0.009,1.3005
166.4,0.01675,0.3795,0.009,1.3005
166.5,0.01675,0.3795,0.009,1.299
166.6,0.0167,0.3795,0.009,1.299
166.7,0.0167,0.381,0.009,1.299
166.8,0.0167,0.381,0.009,1.2975
166.9,0.0167,0.381,0.009,1.2975
167,0.0167,0.3825,0.009,1.2975
167.1,0.01665,0.3825,0.009,1.296
167.2,0.01665,0.384,0.009,1.296
167.3,0.01665,0.384,0.009,1.296
167.399,0.0167,0.384,0.009,1.2945
167.5,0.01665,0.384,0.009,1.2945
167.601,0.0168,0.3855,0.009,1.293
167.7,0.01665,0.3855,0.009,1.293
167.8,0.01665,0.387,0.009,1.293
167.9,0.01665,0.387,0.009,1.293
168,0.01665,0.3885,0.009,1.293
168.101,0.01675,0.3885,0.009,1.2915
168.201,0.0168,0.3885,0.009,1.29
168.3,0.0166,0.39,0.009,1.29
168.4,0.01665,0.39,0.009,1.29
168.499,0.01675,0.39,0.009,1.29
168.599,0.01675,0.3915,0.009,1.29
168.699,0.01675,0.3915,0.009,1.29
168.8,0.01665,0.393,0.009,1.2885
168.9,0.01665,0.393,0.0105,1.2885
169.001,0.0168,0.393,0.0105,1.287
169.101,0.0168,0.3945,0.009,1.287
169.2,0.01665,0.3945,0.009,1.2855
169.3,0.01665,0.3945,0.009,1.2855
169.4,0.0167,0.396,0.009,1.2855
169.5,0.01665,0.396,0.009,1.2855
169.601,0.01675,0.396,0.009,1.284
169.701,0.01675,0.3975,0.009,1.284
169.8,0.0167,0.3975,0.009,1.284
169.9,0.01665,0.399,0.009,1.2825
170,0.0167,0.399,0.009,1.2825
170.101,0.01675,0.399,0.009,1.281
170.2,0.0167,0.4005,0.0105,1.281
170.3,0.0167,0.4005,0.0105,1.281
170.4,0.0167,0.402,0.009,1.281
170.5,0.0167,0.402,0.009,1.2795
170.6,0.0167,0.402,0.009,1.2795
170.7,0.0167,0.4035,0.009,1.278
170.8,0.01665,0.4035,0.0105,1.278
170.9,0.0167,0.405,0.009,1.278
171.001,0.0167,0.405,0.0105,1.2765
171.1,0.0167,0.405,0.009,1.2765
171.201,0.01665,0.4065,0.0105,1.275
171.3,0.0167,0.4065,0.009,1.2765
171.4,0.0167,0.4065,0.0105,1.275
171.5,0.0167,0.408,0.0105,1.275
171.6,0.0167,0.408,0.0105,1.275
171.699,0.01685,0.4095,0.009,1.2735
171.799,0.0168,0.4095,0.0105,1.2735
171.9,0.01675,0.4095,0.0105,1.2735
171.999,0.0168,0.411,0.0105,1.272
172.1,0.0167,0.411,0.0105,1.272
172.2,0.0167,0.411,0.0105,1.272
172.3,0.0167,0.4125,0.0105,1.2705
172.4,0.0167,0.4125,0.0105,1.2705
172.5,0.0168,0.414,0.0105,1.2705
172.6,0.0167,0.414,0.0105,1.269
172.7,0.0167,0.4155,0.0105,1.269
172.801,0.0166,0.4155,0.0105,1.2675
172.9,0.0167,0.4155,0.0105,1.269
173,0.0167,0.417,0.0105,1.2675
173.101,0.01665,0.417,0.0105,1.266
173.2,0.0167,0.417,0.0105,1.266
173.3,0.0167,0.4185,0.0105,1.266
173.399,0.0168,0.4185,0.0105,1.2645
173.5,0.01675,0.42,0.0105,1.2645
173.599,0.0168,0.42,0.0105,1.2645
173.7,0.01675,0.42,0.0105,1.2645
173.801,0.01665,0.4215,0.0105,1.263
173.9,0.01675,0.4215,0.0105,1.263
174,0.01675,0.423,0.0105,1.263
174.1,0.01675,0.423,0.0105,1.2615
174.2,0.01675,0.423,0.0105,1.2615
174.3,0.01675,0.4245,0.0105,1.26
174.4,0.01675,0.4245,0.0105,1.26
174.5,0.01675,0.4245,0.0105,1.26
174.6,0.01675,0.426,0.0105,1.26
174.699,0.01685,0.426,0.0105,1.2585
174.8,0.01675,0.4275,0.0105,1.2585
174.899,0.01685,0.4275,0.0105,1.2585
175,0.01675,0.4275,0.0105,1.257
175.1,0.01675,0.429,0.0105,1.257
175.2,0.01675,0.429,0.0105,1.257
175.3,0.01675,0.4305,0.0105,1.257
175.4,0.01675,0.4305,0.0105,1.2555
175.499,0.01685,0.4305,0.0105,1.2555
175.599,0.01685,0.432,0.0105,1.254
175.7,0.01675,0.432,0.0105,1.254
175.8,0.01675,0.432,0.0105,1.254
175.9,0.01675,0.4335,0.0105,1.2525
176,0.01675,0.4335,0.0105,1.2525
176.1,0.01675,0.435,0.0105,1.2525
176.2,0.01675,0.435,0.0105,1.2525
176.3,0.01675,0.435,0.0105,1.251
176.401,0.01665,0.4365,0.0105,1.251
176.501,0.01665,0.4365,0.0105,1.251
176.6,0.01675,0.438,0.0105,1.2495
176.701,0.01665,0.438,0.0105,1.2495
176.8,0.0168,0.438,0.0105,1.2495
176.9,0.01675,0.4395,0.0105,1.248
177.001,0.01665,0.4395,0.0105,1.248
177.1,0.01675,0.441,0.0105,1.248
177.201,0.01665,0.441,0.0105,1.2465
177.3,0.0168,0.4425,0.0105,1.2465
177.399,0.0168,0.4425,0.0105,1.2465
177.499,0.01685,0.4425,0.0105,1.245
177.6,0.01675,0.444,0.0105,1.245
177.701,0.01665,0.444,0.0105,1.245
177.8,0.01675,0.444,0.0105,1.245
177.9,0.01675,0.4455,0.0105,1.2435
178,0.01675,0.4455,0.0105,1.2435
178.1,0.0168,0.447,0.0105,1.2435
178.2,0.0168,0.447,0.0105,1.242
178.301,0.01665,0.4485,0.0105,1.242
178.4,0.01675,0.4485,0.0105,1.242
178.5,0.01675,0.4485,0.0105,1.2405
178.6,0.0168,0.45,0.0105,1.2405
178.7,0.0168,0.45,0.0105,1.2405
178.8,0.01675,0.4515,0.0105,1.239
178.899,0.01685,0.4515,0.0105,1.239
179,0.0168,0.453,0.012,1.239
179.1,0.0168,0.453,0.0105,1.2375
179.199,0.01685,0.453,0.012,1.2375
179.3,0.0168,0.4545,0.012,1.2375
179.4,0.0168,0.4545,0.0105,1.236
179.501,0.0167,0.456,0.012,1.236
179.6,0.0168,0.456,0.012,1.236
179.7,0.0168,0.4575,0.0105,1.2345
179.8,0.0168,0.4575,0.012,1.2345
179.9,0.0168,0.4575,0.0105,1.2345
180,0.0168,0.459,0.012,1.233
180.101,0.0167,0.459,0.012,1.233
180.2,0.0168,0.4605,0.012,1.233
180.3,0.0168,0.4605,0.012,1.2315
180.399,0.01685,0.4605,0.012,1.2315
180.5,0.0168,0.462,0.012,1.2315
180.6,0.0168,0.462,0.012,1.23
180.699,0.01685,0.4635,0.012,1.23
180.8,0.0168,0.4635,0.012,1.23
180.9,0.0168,0.465,0.012,1.2285
181,0.0168,0.465,0.012,1.2285
181.1,0.0168,0.465,0.012,1.2285
181.2,0.0168,0.4665,0.012,1.227
181.299,0.01685,0.4665,0.012,1.227
181.4,0.0168,0.468,0.012,1.227
181.5,0.0168,0.468,0.012,1.2255
181.6,0.0168,0.468,0.012,1.2255
181.699,0.01685,0.4695,0.012,1.2255
181.8,0.0168,0.4695,0.012,1.2255
181.9,0.0168,0.471,0.012,1.224
182,0.01675,0.471,0.012,1.224
182.101,0.01675,0.4725,0.012,1.224
182.2,0.0168,0.4725,0.012,1.2225
182.3,0.0168,0.4725,0.012,1.2225
182.401,0.01675,0.474,0.012,1.2225
182.5,0.0168,0.474,0.012,1.221
182.6,0.01685,0.4755,0.012,1.221
182.7,0.0168,0.4755,0.012,1.221
182.801,0.01675,0.477,0.012,1.221
182.9,0.01685,0.477,0.012,1.2195
183,0.0168,0.4785,0.012,1.2195
183.1,0.01685,0.4785,0.012,1.218
183.201,0.01675,0.4785,0.012,1.218
183.3,0.0168,0.48,0.012,1.218
183.4,0.01685,0.48,0.012,1.2165
183.5,0.01685,0.4815,0.012,1.2165
183.601,0.0168,0.4815,0.012,1.2165
183.7,0.01685,0.4815,0.012,1.215
183.8,0.01685,0.483,0.012,1.215
183.9,0.0168,0.483,0.012,1.215
183.999,0.0169,0.4845,0.012,1.2135
184.1,0.01685,0.4845,0.012,1.2135
184.2,0.01685,0.486,0.012,1.2135
184.3,0.01685,0.486,0.012,1.2135
184.4,0.01685,0.486,0.012,1.212
184.5,0.01685,0.4875,0.012,1.212
184.601,0.0168,0.4875,0.012,1.212
184.7,0.01685,0.489,0.012,1.2105
184.8,0.0168,0.489,0.012,1.2105
184.9,0.01685,0.4905,0.012,1.2105
184.999,0.0169,0.4905,0.012,1.2105
185.099,0.0169,0.492,0.012,1.209
185.2,0.0169,0.492,0.012,1.209
185.3,0.01685,0.492,0.012,1.209
185.4,0.01685,0.4935,0.012,1.2075
185.501,0.0168,0.4935,0.012,1.2075
185.6,0.01685,0.495,0.012,1.2075
185.7,0.01685,0.495,0.012,1.206
185.8,0.01685,0.495,0.012,1.206
185.9,0.0169,0.4965,0.012,1.206
186,0.01685,0.4965,0.012,1.2045
186.101,0.0168,0.498,0.012,1.2045
186.2,0.01685,0.498,0.012,1.2045
186.299,0.0169,0.4995,0.012,1.203
186.4,0.0169,0.4995,0.012,1.203
186.5,0.0169,0.501,0.0135,1.203
186.6,0.0169,0.501,0.012,1.2015
186.7,0.0169,0.501,0.012,1.2015
186.8,0.0169,0.5025,0.0135,1.2015
186.9,0.0169,0.5025,0.012,1.2015
187,0.0169,0.504,0.012,1.2
187.099,0.01695,0.504,0.0135,1.2
187.199,0.0169,0.5055,0.012,1.2
187.3,0.01685,0.5055,0.012,1.1985
187.4,0.0169,0.507,0.0135,1.1985
187.501,0.01685,0.507,0.0135,1.1985
187.6,0.01685,0.5085,0.0135,1.1985
187.7,0.0169,0.5085,0.0135,1.197
187.801,0.01685,0.5085,0.0135,1.197
187.9,0.01685,0.51,0.0135,1.197
188,0.0169,0.5115,0.0135,1.1955
188.1,0.0169,0.5115,0.0135,1.1955
188.2,0.0169,0.5115,0.0135,1.1955
188.301,0.01685,0.513,0.0135,1.1955
188.4,0.01695,0.513,0.0135,1.194
188.5,0.0169,0.5145,0.0135,1.194
188.599,0.0169,0.5145,0.0135,1.1925
188.7,0.0169,0.516,0.0135,1.1925
188.8,0.01685,0.516,0.0135,1.1925
188.899,0.01685,0.516,0.0135,1.1925
189,0.0169,0.5175,0.0135,1.191
189.1,0.0169,0.519,0.0135,1.191
189.199,0.01685,0.519,0.0135,1.191
189.299,0.01685,0.519,0.0135,1.1895
189.4,0.0169,0.5205,0.0135,1.1895
189.5,0.0169,0.5205,0.0135,1.1895
189.6,0.0169,0.522,0.0135,1.1895
189.7,0.0169,0.522,0.0135,1.188
189.799,0.01685,0.5235,0.0135,1.188
189.9,0.0169,0.5235,0.0135,1.188
190,0.0169,0.525,0.0135,1.1865
190.1,0.0169,0.525,0.0135,1.1865
190.2,0.0169,0.5265,0.0135,1.1865
190.3,0.01695,0.5265,0.0135,1.185
190.4,0.0169,0.528,0.0135,1.185
190.5,0.0169,0.528,0.0135,1.185
190.6,0.0169,0.528,0.0135,1.1835
190.701,0.0169,0.5295,0.0135,1.1835
190.8,0.0169,0.5295,0.0135,1.1835
190.9,0.0169,0.531,0.0135,1.182
191,0.0169,0.531,0.0135,1.182
191.101,0.01685,0.5325,0.0135,1.182
191.2,0.0169,0.5325,0.0135,1.182
191.3,0.0169,0.5325,0.0135,1.1805
191.4,0.0169,0.534,0.0135,1.1805
191.5,0.0169,0.534,0.0135,1.1805
191.6,0.0169,0.5355,0.0135,1.179
191.7,0.0169,0.5355,0.0135,1.179
191.8,0.0169,0.537,0.0135,1.179
191.9,0.0169,0.537,0.0135,1.179
192,0.01685,0.5385,0.0135,1.1775
192.1,0.0169,0.5385,0.0135,1.1775
192.2,0.0169,0.54,0.0135,1.1775
192.3,0.0169,0.54,0.0135,1.176
192.401,0.0169,0.5415,0.015,1.176
192.5,0.0169,0.5415,0.0135,1.176
192.601,0.0169,0.543,0.0135,1.1745
192.701,0.0169,0.543,0.0135,1.1745
192.8,0.01685,0.5445,0.0135,1.1745
192.9,0.01685,0.5445,0.015,1.173
193,0.01685,0.546,0.0135,1.173
193.1,0.01685,0.546,0.015,1.173
193.2,0.01685,0.546,0.015,1.173
193.3,0.01685,0.5475,0.0135,1.1715
193.4,0.01685,0.549,0.0135,1.1715
193.501,0.0169,0.549,0.015,1.1715
193.6,0.0168,0.549,0.015,1.17
193.701,0.0169,0.5505,0.015,1.17
193.801,0.0169,0.5505,0.015,1.17
193.9,0.0168,0.552,0.015,1.1685
194,0.0168,0.552,0.015,1.1685
194.1,0.0168,0.5535,0.015,1.1685
194.201,0.0169,0.5535,0.015,1.1685
194.3,0.0168,0.555,0.015,1.167
194.4,0.0168,0.555,0.015,1.167
194.5,0.0168,0.5565,0.015,1.1655
194.6,0.0168,0.5565,0.015,1.1655
194.701,0.0169,0.558,0.015,1.1655
194.8,0.0168,0.558,0.015,1.1655
194.899,0.0168,0.5595,0.015,1.1625
195,0.0168,0.5595,0.015,1.164
195.1,0.0168,0.561,0.015,1.164
195.2,0.0168,0.561,0.015,1.1625
195.3,0.0168,0.561,0.015,1.1625
195.4,0.0168,0.5625,0.015,1.1625
195.5,0.0168,0.564,0.015,1.161
195.6,0.0168,0.564,0.015,1.161
195.7,0.0168,0.564,0.015,1.161
195.801,0.0169,0.5655,0.015,1.161
195.9,0.0168,0.5655,0.015,1.1595
196,0.0168,0.567,0.015,1.1595
196.1,0.0168,0.567,0.015,1.158
196.2,0.0169,0.5685,0.015,1.1595
196.299,0.0168,0.57,0.015,1.1565
196.4,0.0168,0.57,0.015,1.1565
196.5,0.0168,0.57,0.015,1.1565
196.6,0.0168,0.5715,0.015,1.1565
196.701,0.0168,0.5715,0.015,1.1565
196.8,0.0168,0.573,0.015,1.155
196.9,0.01675,0.573,0.015,1.155
197,0.0168,0.5745,0.015,1.155
197.1,0.0168,0.5745,0.015,1.1535
197.199,0.0168,0.576,0.015,1.152
197.3,0.0168,0.576,0.015,1.1535
197.4,0.0168,0.5775,0.015,1.152
197.5,0.0168,0.5775,0.015,1.152
197.6,0.0168,0.5775,0.015,1.152
197.7,0.0168,0.579,0.015,1.152
197.801,0.0168,0.579,0.015,1.152
197.9,0.0168,0.5805,0.015,1.1505
198.001,0.0168,0.5805,0.015,1.1505
198.101,0.0168,0.582,0.015,1.1505
198.201,0.0168,0.582,0.015,1.1505
198.299,0.0168,0.5835,0.015,1.1475
198.4,0.0168,0.5835,0.015,1.1475
198.5,0.0168,0.585,0.015,1.1475
198.601,0.0168,0.585,0.015,1.149
198.7,0.0168,0.5865,0.015,1.1475
198.8,0.0168,0.588,0.015,1.146
198.9,0.0168,0.588,0.0165,1.146
199.001,0.0168,0.588,0.0165,1.146
199.1,0.0168,0.5895,0.0165,1.146
199.2,0.0168,0.5895,0.015,1.1445
199.299,0.0168,0.591,0.0165,1.143
199.4,0.0168,0.591,0.0165,1.1445
199.5,0.0168,0.5925,0.015,1.143
199.6,0.0168,0.5925,0.0165,1.1415
199.7,0.0168,0.594,0.0165,1.1415
199.8,0.0168,0.594,0.0165,1.1415
199.9,0.0168,0.5955,0.0165,1.1415
200,0.0168,0.5955,0.0165,1.1415
200.101,0.0168,0.597,0.0165,1.1415
200.2,0.0168,0.597,0.0165,1.14
200.3,0.0168,0.5985,0.0165,1.14
200.399,0.0168,0.5985,0.0165,1.1385
200.5,0.0168,0.6,0.0165,1.1385
200.599,0.0168,0.6,0.0165,1.137
200.699,0.0168,0.6015,0.0165,1.137
200.8,0.01675,0.6015,0.0165,1.137
200.901,0.0168,0.603,0.0165,1.137
201,0.0168,0.603,0.0165,1.1355
201.101,0.0168,0.6045,0.0165,1.137
201.2,0.0168,0.6045,0.0165,1.1355
201.3,0.0168,0.606,0.0165,1.1355
201.401,0.0168,0.606,0.0165,1.1355
201.5,0.0168,0.6075,0.0165,1.134
201.6,0.0168,0.6075,0.0165,1.134
201.7,0.0168,0.609,0.0165,1.1325
201.801,0.0168,0.609,0.0165,1.1325
201.9,0.0168,0.6105,0.0165,1.1325
202,0.0168,0.612,0.0165,1.134
202.1,0.0168,0.612,0.0165,1.131
202.201,0.0168,0.612,0.0165,1.131
202.3,0.0168,0.6135,0.0165,1.131
202.4,0.0168,0.6135,0.0165,1.131
202.5,0.0168,0.615,0.0165,1.1295
202.599,0.0168,0.615,0.0165,1.1295
202.7,0.0168,0.6165,0.0165,1.1295
202.8,0.0168,0.6165,0.0165,1.128
202.9,0.0168,0.618,0.0165,1.128
203,0.01685,0.618,0.0165,1.128
203.1,0.0168,0.6195,0.0165,1.128
203.201,0.0168,0.6195,0.0165,1.1265
203.3,0.0168,0.621,0.0165,1.1265
203.4,0.0168,0.6225,0.0165,1.125
203.5,0.0168,0.6225,0.0165,1.125
203.6,0.0168,0.624,0.0165,1.125
203.7,0.0168,0.624,0.0165,1.125
203.801,0.0168,0.6255,0.018,1.125
203.901,0.0168,0.6255,0.0165,1.1235
204,0.0168,0.627,0.0165,1.1235
204.1,0.0168,0.627,0.018,1.1235
204.2,0.0168,0.6285,0.0165,1.122
204.3,0.0168,0.6285,0.0165,1.122
204.4,0.0168,0.63,0.018,1.122
204.501,0.0168,0.63,0.018,1.1205
204.6,0.0168,0.6315,0.018,1.1205
204.7,0.0168,0.6315,0.018,1.1205
204.8,0.0168,0.633,0.018,1.119
204.9,0.0168,0.633,0.018,1.119
205,0.0168,0.6345,0.018,1.119
205.1,0.0168,0.636,0.018,1.119
205.201,0.0168,0.636,0.018,1.119
205.3,0.0168,0.6375,0.018,1.1175
205.401,0.0168,0.6375,0.018,1.116
205.501,0.0168,0.639,0.018,1.1175
205.601,0.0168,0.639,0.018,1.116
205.7,0.0168,0.6405,0.018,1.116
205.799,0.0168,0.6405,0.018,1.1145
205.9,0.01685,0.642,0.018,1.1145
206,0.0168,0.642,0.018,1.1145
206.1,0.0168,0.6435,0.018,1.1145
206.2,0.0168,0.6435,0.018,1.113
206.299,0.0168,0.645,0.018,1.1145
206.4,0.0168,0.645,0.018,1.113
206.5,0.0168,0.6465,0.018,1.1115
206.6,0.0168,0.6465,0.018,1.1115
206.7,0.0168,0.648,0.018,1.1115
206.8,0.0168,0.648,0.018,1.11
206.9,0.0168,0.6495,0.018,1.11
207,0.0168,0.6495,0.018,1.11
207.099,0.01675,0.651,0.018,1.1085
207.2,0.0168,0.651,0.018,1.1085
207.301,0.01675,0.6525,0.018,1.11
207.4,0.0168,0.6525,0.018,1.1085
207.499,0.0168,0.654,0.018,1.107
207.6,0.0168,0.6555,0.018,1.107
207.7,0.0168,0.6555,0.018,1.107
207.8,0.01685,0.657,0.018,1.1055
207.9,0.0168,0.657,0.018,1.1055
208,0.0168,0.6585,0.018,1.1055
208.1,0.0168,0.6585,0.018,1.1055
208.199,0.0168,0.66,0.018,1.104
208.3,0.0168,0.6615,0.018,1.104
208.4,0.0168,0.6615,0.018,1.104
208.5,0.0168,0.663,0.018,1.104
208.601,0.0168,0.663,0.018,1.104
208.7,0.0168,0.6645,0.018,1.1025
208.801,0.0169,0.6645,0.018,1.1055
208.9,0.0168,0.666,0.018,1.1025
209,0.0168,0.666,0.0195,1.101
209.1,0.0168,0.6675,0.0195,1.101
209.199,0.0168,0.6675,0.018,1.101
209.3,0.0168,0.669,0.0195,1.0995
209.401,0.0168,0.669,0.0195,1.101
209.5,0.0168,0.6705,0.0195,1.0995
209.601,0.0168,0.672,0.0195,1.0995
209.7,0.0168,0.672,0.0195,1.098
209.8,0.0168,0.672,0.0195,1.098
209.899,0.01665,0.6735,0.0195,1.0965
209.999,0.0168,0.675,0.0195,1.0965
210.1,0.0168,0.675,0.0195,1.098
210.2,0.0168,0.675,0.0195,1.0965
210.3,0.0168,0.6765,0.0195,1.095
210.399,0.0168,0.678,0.0195,1.095
210.5,0.0168,0.678,0.0195,1.095
210.601,0.0168,0.6795,0.0195,1.095
210.7,0.0168,0.6795,0.0195,1.0935
210.8,0.0168,0.681,0.0195,1.0935
210.9,0.0168,0.681,0.0195,1.0935
211,0.0168,0.6825,0.0195,1.092
211.1,0.01675,0.6825,0.0195,1.092
211.2,0.0168,0.684,0.0195,1.092
211.299,0.0168,0.684,0.0195,1.092
211.4,0.0168,0.6855,0.0195,1.092
211.5,0.0168,0.6855,0.0195,1.0905
211.6,0.0168,0.687,0.0195,1.0905
211.699,0.0166,0.687,0.0195,1.089
211.8,0.0168,0.6885,0.0195,1.089
211.9,0.0168,0.69,0.0195,1.089
212.001,0.01675,0.69,0.0195,1.089
212.1,0.0168,0.6915,0.0195,1.0875
212.2,0.0168,0.6915,0.0195,1.0875
212.3,0.0168,0.693,0.0195,1.0875
212.399,0.0166,0.693,0.0195,1.086
212.499,0.0168,0.6945,0.0195,1.086
212.6,0.0168,0.6945,0.0195,1.086
212.701,0.0168,0.696,0.0195,1.086
212.8,0.0168,0.696,0.0195,1.0845
212.9,0.0168,0.6975,0.0195,1.0845
213,0.0168,0.6975,0.021,1.0845
213.1,0.0168,0.699,0.0195,1.083
213.2,0.0168,0.7005,0.0195,1.083
213.3,0.0168,0.7005,0.0195,1.083
213.4,0.0168,0.702,0.021,1.0815
213.5,0.01675,0.702,0.0195,1.0815
213.601,0.0168,0.7035,0.0195,1.083
213.7,0.0168,0.7035,0.021,1.0815
213.8,0.01675,0.705,0.021,1.08
213.9,0.0168,0.705,0.021,1.0815
214,0.0168,0.7065,0.021,1.08
214.101,0.0168,0.7065,0.021,1.08
214.2,0.0168,0.708,0.021,1.0785
214.3,0.01675,0.7095,0.021,1.0785
214.401,0.0168,0.7095,0.021,1.0785
214.5,0.01675,0.711,0.021,1.077
214.6,0.01675,0.711,0.021,1.077
214.7,0.0168,0.7125,0.021,1.077
214.8,0.01675,0.7125,0.021,1.0755
214.9,0.0168,0.714,0.021,1.0755
214.999,0.01665,0.714,0.021,1.0755
215.099,0.0168,0.7155,0.021,1.0755
215.2,0.01675,0.7155,0.021,1.074
215.3,0.01675,0.717,0.021,1.074
215.4,0.01675,0.717,0.021,1.074
215.501,0.01685,0.7185,0.021,1.074
215.6,0.01675,0.72,0.021,1.0725
215.7,0.01675,0.72,0.021,1.0725
215.8,0.01675,0.72,0.021,1.0725
215.9,0.01675,0.7215,0.021,1.071
216,0.01675,0.7215,0.021,1.071
216.1,0.01675,0.723,0.021,1.071
216.2,0.01675,0.723,0.021,1.071
216.3,0.0168,0.7245,0.021,1.0695
216.4,0.01675,0.726,0.021,1.0695
216.5,0.01675,0.726,0.021,1.0695
216.6,0.01675,0.7275,0.021,1.0695
216.699,0.01675,0.7275,0.021,1.068
216.8,0.01675,0.729,0.021,1.068
216.9,0.01675,0.729,0.0225,1.068
217.001,0.0168,0.7305,0.021,1.068
217.1,0.01675,0.7305,0.0225,1.0665
217.2,0.01675,0.732,0.021,1.0665
217.299,0.01665,0.7335,0.021,1.065
217.399,0.0167,0.7335,0.0225,1.065
217.5,0.0168,0.735,0.021,1.065
217.6,0.0168,0.735,0.021,1.065
217.699,0.0168,0.7365,0.021,1.065
217.8,0.01675,0.738,0.021,1.0635
217.9,0.01675,0.738,0.021,1.0635
217.999,0.01665,0.738,0.0225,1.062
218.1,0.01675,0.7395,0.0225,1.0635
218.2,0.0168,0.741,0.021,1.062
218.301,0.01675,0.741,0.0225,1.062
218.4,0.0168,0.7425,0.0225,1.062
218.5,0.0168,0.7425,0.0225,1.0605
218.6,0.0168,0.744,0.0225,1.0605
218.699,0.01665,0.744,0.0225,1.0605
218.8,0.0168,0.7455,0.0225,1.0605
218.901,0.01675,0.747,0.0225,1.0605
219,0.01675,0.747,0.0225,1.059
219.099,0.0168,0.7485,0.0225,1.059
219.2,0.01675,0.7485,0.0225,1.059
219.301,0.0168,0.75,0.0225,1.059
219.401,0.0168,0.75,0.0225,1.059
219.5,0.01675,0.7515,0.0225,1.0575
219.6,0.0168,0.7515,0.0225,1.0575
219.701,0.0168,0.753,0.0225,1.0575
219.8,0.0168,0.753,0.0225,1.056
219.9,0.0168,0.7545,0.0225,1.056
220,0.01675,0.7545,0.0225,1.056
220.1,0.0168,0.756,0.0225,1.056
220.2,0.0168,0.7575,0.0225,1.0545
220.3,0.0168,0.7575,0.0225,1.0545
220.4,0.01675,0.759,0.0225,1.0545
220.5,0.0168,0.759,0.0225,1.0545
220.6,0.0168,0.7605,0.0225,1.053
220.701,0.0168,0.7605,0.0225,1.0545
220.8,0.0168,0.762,0.0225,1.053
220.901,0.0168,0.762,0.0225,1.053
221,0.0168,0.7635,0.0225,1.0515
221.099,0.0166,0.765,0.0225,1.0515
221.2,0.0168,0.765,0.0225,1.0515
221.3,0.0168,0.7665,0.0225,1.05
221.4,0.01675,0.7665,0.0225,1.05
221.5,0.0168,0.768,0.0225,1.05
221.599,0.0168,0.768,0.0225,1.05
221.7,0.0168,0.7695,0.0225,1.05
221.801,0.0168,0.7695,0.0225,1.05
221.9,0.0168,0.7695,0.024,1.0485
222,0.0168,0.771,0.024,1.0485
222.1,0.0168,0.7725,0.0225,1.0485
222.2,0.0168,0.7725,0.024,1.047
222.301,0.0168,0.774,0.0225,1.047
222.401,0.0168,0.774,0.0225,1.047
222.501,0.0168,0.7755,0.0225,1.047
222.6,0.0168,0.7755,0.024,1.0455
222.699,0.01665,0.777,0.024,1.0455
222.799,0.01665,0.7785,0.024,1.044
222.9,0.0168,0.7785,0.024,1.044
223.001,0.0168,0.78,0.024,1.0455
223.1,0.0168,0.78,0.024,1.044
223.2,0.0168,0.7815,0.024,1.044
223.3,0.0168,0.7815,0.024,1.0425
223.4,0.0168,0.783,0.024,1.044
223.5,0.0168,0.7845,0.024,1.0425
223.601,0.0168,0.7845,0.024,1.0425
223.7,0.0168,0.786,0.024,1.041
223.8,0.0168,0.786,0.024,1.041
223.9,0.0168,0.7875,0.024,1.0425
224,0.01675,0.7875,0.024,1.041
224.1,0.0168,0.789,0.024,1.0395
224.2,0.0168,0.789,0.024,1.0395
224.3,0.01675,0.7905,0.024,1.0395
224.401,0.0168,0.7905,0.024,1.0395
224.5,0.0168,0.792,0.024,1.038
224.6,0.0168,0.792,0.024,1.038
224.7,0.0168,0.7935,0.024,1.038
224.801,0.01675,0.795,0.024,1.038
224.9,0.0168,0.795,0.024,1.038
225,0.0168,0.7965,0.024,1.0365
225.1,0.0168,0.7965,0.024,1.0365
225.2,0.0168,0.798,0.024,1.035
225.3,0.0168,0.798,0.024,1.035
225.4,0.0168,0.7995,0.024,1.035
225.499,0.01675,0.801,0.024,1.0335
225.6,0.0168,0.801,0.024,1.0335
225.701,0.0168,0.8025,0.024,1.0365
225.8,0.0168,0.8025,0.024,1.0335
225.9,0.0168,0.804,0.024,1.0335
226,0.0168,0.804,0.0255,1.0335
226.101,0.0168,0.8055,0.024,1.0335
226.2,0.0168,0.8055,0.0255,1.032
226.3,0.0168,0.807,0.024,1.0335
226.4,0.0168,0.807,0.024,1.0305
226.5,0.0168,0.8085,0.0255,1.0305
226.601,0.0168,0.81,0.0255,1.032
226.7,0.01675,0.81,0.0255,1.0305
226.8,0.0168,0.8115,0.0255,1.029
226.9,0.0168,0.8115,0.0255,1.0305
226.999,0.0168,0.813,0.0255,1.0275
227.1,0.0168,0.813,0.0255,1.029
227.2,0.0168,0.8145,0.0255,1.029
227.301,0.01675,0.816,0.0255,1.029
227.401,0.0168,0.816,0.0255,1.0275
227.501,0.0168,0.816,0.0255,1.0275
227.6,0.0168,0.8175,0.0255,1.0275
227.7,0.0168,0.8175,0.0255,1.026
227.8,0.0168,0.819,0.0255,1.0275
227.9,0.0168,0.819,0.0255,1.026
228,0.01675,0.8205,0.0255,1.026
228.1,0.0168,0.8205,0.0255,1.0245
228.2,0.0168,0.822,0.0255,1.0245
228.3,0.0168,0.822,0.0255,1.0245
228.401,0.0168,0.8235,0.0255,1.0245
228.5,0.0168,0.825,0.0255,1.0245
228.6,0.01675,0.825,0.0255,1.023
228.7,0.0168,0.8265,0.0255,1.023
228.8,0.0168,0.8265,0.0255,1.023
228.9,0.0168,0.828,0.0255,1.0215
228.999,0.0168,0.828,0.0255,1.0215
229.1,0.0168,0.8295,0.0255,1.0215
229.2,0.0168,0.8295,0.0255,1.0215
229.3,0.0168,0.831,0.0255,1.02
229.401,0.01675,0.8325,0.0255,1.0215
229.5,0.0168,0.8325,0.0255,1.02
229.6,0.0168,0.834,0.0255,1.02
229.699,0.0168,0.834,0.0255,1.0185
229.8,0.0168,0.8355,0.0255,1.0185
229.9,0.0168,0.8355,0.0255,1.0185
230,0.0168,0.837,0.0255,1.0185
230.1,0.0168,0.837,0.027,1.017
230.2,0.0168,0.8385,0.027,1.017
230.3,0.0168,0.8385,0.027,1.017
230.4,0.0168,0.84,0.027,1.017
230.501,0.0168,0.8415,0.027,1.017
230.6,0.01685,0.8415,0.027,1.0155
230.699,0.0168,0.843,0.027,1.014
230.799,0.0168,0.843,0.027,1.014
230.9,0.0168,0.8445,0.027,1.014
231.001,0.0168,0.8445,0.027,1.0155
231.1,0.0168,0.846,0.027,1.014
231.2,0.0168,0.846,0.027,1.014
231.3,0.01675,0.8475,0.027,1.0125
231.4,0.0168,0.8475,0.027,1.0125
231.5,0.0168,0.849,0.027,1.0125
231.6,0.0168,0.8505,0.027,1.0125
231.7,0.0168,0.8505,0.027,1.011
231.799,0.0168,0.852,0.027,1.011
231.899,0.0168,0.852,0.027,1.0095
231.999,0.0168,0.8535,0.027,1.0095
232.099,0.0168,0.8535,0.027,1.0095
232.2,0.01675,0.855,0.027,1.0095
232.3,0.0168,0.855,0.027,1.0095
232.4,0.01675,0.8565,0.027,1.0095
232.501,0.01675,0.858,0.027,1.0095
232.6,0.0168,0.858,0.027,1.008
232.7,0.01675,0.8595,0.027,1.008
232.801,0.0168,0.8595,0.027,1.008
232.901,0.0168,0.861,0.027,1.0095
233,0.0168,0.861,0.027,1.008
233.1,0.0168,0.8625,0.027,1.008
233.2,0.0168,0.864,0.027,1.0065
233.3,0.0168,0.864,0.027,1.0065
233.4,0.01675,0.864,0.027,1.005
233.5,0.0168,0.8655,0.027,1.0065
233.6,0.0168,0.867,0.027,1.005
233.7,0.0168,0.867,0.0285,1.0035
233.8,0.0168,0.8685,0.0285,1.005
233.9,0.0168,0.8685,0.0285,1.005
234,0.0168,0.87,0.0285,1.005
234.1,0.01675,0.8715,0.027,1.0035
234.2,0.0168,0.8715,0.0285,1.0035
234.3,0.0168,0.8715,0.0285,1.002
234.4,0.0168,0.873,0.0285,1.002
234.5,0.0168,0.873,0.0285,1.002
234.6,0.0168,0.8745,0.0285,1.002
234.7,0.0168,0.876,0.0285,1.002
234.8,0.0168,0.876,0.0285,1.0005
234.9,0.0168,0.8775,0.0285,1.0005
235,0.0168,0.8775,0.0285,1.002
235.1,0.0168,0.879,0.0285,0.999
235.2,0.01675,0.879,0.0285,1.0005
235.299,0.0168,0.8805,0.0285,0.999
235.399,0.01675,0.882,0.0285,0.999
235.5,0.0168,0.882,0.0285,0.999
235.6,0.01675,0.8835,0.0285,0.999
235.699,0.01675,0.8835,0.0285,0.9975
235.8,0.0168,0.885,0.0285,0.9975
235.9,0.0168,0.885,0.0285,0.996
236,0.0168,0.8865,0.0285,0.996
236.1,0.0168,0.8865,0.0285,0.996
236.201,0.0168,0.888,0.0285,0.996
236.3,0.0168,0.888,0.0285,0.996
236.4,0.0168,0.8895,0.0285,0.9945
236.501,0.0168,0.8895,0.0285,0.996
236.6,0.0168,0.891,0.0285,0.9945
236.701,0.0168,0.8925,0.0285,0.9945
236.801,0.0168,0.8925,0.0285,0.9945
236.9,0.0168,0.894,0.0285,0.9945
237.001,0.0168,0.894,0.0285,0.9945
237.1,0.0168,0.8955,0.03,0.993
237.2,0.0168,0.897,0.0285,0.993
237.3,0.01685,0.897,0.0285,0.993
237.4,0.0168,0.8985,0.03,0.9915
237.499,0.0168,0.9,0.03,0.9915
237.6,0.01675,0.9,0.03,0.9915
237.7,0.0168,0.9015,0.0285,0.99
237.8,0.0168,0.9015,0.03,0.99
237.901,0.01685,0.903,0.03,0.99
238.001,0.01685,0.903,0.03,0.99
238.101,0.01685,0.9045,0.03,0.99
238.201,0.01685,0.906,0.03,0.99
238.3,0.01685,0.906,0.03,0.99
238.4,0.0168,0.9075,0.03,0.9885
238.5,0.0168,0.9075,0.03,0.9885
238.601,0.0169,0.909,0.03,0.9885
238.7,0.0168,0.909,0.03,0.987
238.8,0.0168,0.9105,0.03,0.987
238.9,0.0168,0.9105,0.03,0.987
239,0.0168,0.912,0.03,0.9855
239.1,0.0168,0.912,0.03,0.9855
239.201,0.0169,0.9135,0.03,0.9855
239.301,0.0169,0.9135,0.03,0.9855
239.401,0.0169,0.915,0.03,0.9855
239.5,0.0168,0.915,0.03,0.984
239.6,0.0169,0.9165,0.03,0.984
239.7,0.01675,0.9165,0.03,0.984
239.8,0.0168,0.918,0.03,0.984
239.901,0.0169,0.918,0.03,0.984
240,0.0169,0.9195,0.03,0.9825
240.1,0.0168,0.9195,0.03,0.9825
240.2,0.0168,0.921,0.0315,0.9825
240.301,0.0169,0.9225,0.03,0.9825
240.401,0.0169,0.9225,0.03,0.981
240.501,0.0169,0.924,0.03,0.981
240.6,0.0168,0.924,0.0315,0.981
240.7,0.0168,0.9255,0.0315,0.9795
240.8,0.0168,0.9255,0.03,0.9795
240.9,0.0169,0.927,0.03,0.9795
240.999,0.01685,0.927,0.0315,0.9795
241.1,0.0168,0.9285,0.0315,0.9795
241.199,0.01685,0.9285,0.0315,0.978
241.3,0.01685,0.93,0.03,0.978
241.401,0.0169,0.93,0.0315,0.978
241.5,0.01685,0.9315,0.0315,0.978
241.6,0.01685,0.933,0.0315,0.9765
241.7,0.01685,0.933,0.0315,0.9765
241.8,0.01685,0.9345,0.0315,0.9765
241.899,0.0168,0.9345,0.0315,0.975
242,0.01685,0.936,0.0315,0.975
242.101,0.0169,0.936,0.0315,0.9765
242.201,0.0169,0.9375,0.0315,0.975
242.3,0.01685,0.9375,0.0315,0.975
242.4,0.01685,0.939,0.0315,0.9735
242.5,0.01685,0.939,0.0315,0.9735
242.6,0.01685,0.9405,0.0315,0.9735
242.699,0.0168,0.9405,0.0315,0.972
242.8,0.01685,0.942,0.0315,0.972
242.901,0.0169,0.942,0.0315,0.972
243,0.0169,0.9435,0.0315,0.972
243.1,0.0169,0.9435,0.0315,0.972
243.2,0.01685,0.945,0.0315,0.972
243.3,0.01685,0.945,0.0315,0.9705
243.4,0.0169,0.9465,0.0315,0.9705
243.5,0.01685,0.9465,0.0315,0.9705
243.6,0.0169,0.948,0.0315,0.9705
243.7,0.0169,0.948,0.0315,0.969
243.801,0.01685,0.9495,0.0315,0.969
243.9,0.0169,0.9495,0.0315,0.969
244.001,0.01685,0.951,0.033,0.9675
244.1,0.0169,0.951,0.033,0.9675
244.2,0.0169,0.9525,0.033,0.9675
244.301,0.0169,0.954,0.033,0.9675
244.401,0.01685,0.954,0.033,0.9675
244.5,0.0169,0.9555,0.033,0.966
244.6,0.0169,0.9555,0.033,0.966
244.7,0.0169,0.957,0.033,0.966
244.8,0.0169,0.957,0.033,0.966
244.9,0.0169,0.9585,0.033,0.966
245,0.01685,0.9585,0.033,0.9645
245.1,0.0169,0.96,0.033,0.9645
245.2,0.0169,0.96,0.033,0.9645
245.3,0.0169,0.96,0.033,0.9645
245.4,0.0169,0.9615,0.033,0.963
245.501,0.01685,0.9615,0.033,0.963
245.6,0.01685,0.963,0.033,0.963
245.7,0.0169,0.9645,0.033,0.963
245.8,0.0169,0.9645,0.033,0.963
245.901,0.01685,0.966,0.033,0.9615
246,0.0169,0.966,0.033,0.9615
246.099,0.01685,0.9675,0.033,0.96
246.2,0.0169,0.9675,0.033,0.9615
246.3,0.0169,0.969,0.033,0.96
246.4,0.0169,0.969,0.033,0.96
246.499,0.0169,0.9705,0.033,0.96
246.6,0.0169,0.9705,0.033,0.96
246.7,0.0169,0.972,0.033,0.96
246.801,0.01685,0.972,0.033,0.9585
246.9,0.01685,0.9735,0.033,0.9585
247,0.0169,0.9735,0.033,0.9585
247.099,0.01685,0.975,0.033,0.957
247.2,0.0169,0.975,0.033,0.957
247.3,0.01685,0.9765,0.0345,0.957
247.4,0.0169,0.978,0.0345,0.957
247.5,0.0169,0.978,0.0345,0.957
247.601,0.0168,0.978,0.033,0.957
247.7,0.0169,0.9795,0.0345,0.9555
247.801,0.01685,0.9795,0.0345,0.9555
247.9,0.0169,0.981,0.0345,0.9555
248,0.0168,0.9825,0.0345,0.9555
248.1,0.0169,0.9825,0.0345,0.954
248.201,0.01685,0.984,0.0345,0.954
248.3,0.01685,0.984,0.0345,0.954
248.401,0.0168,0.9855,0.0345,0.954
248.5,0.0168,0.9855,0.0345,0.954
248.6,0.0169,0.987,0.0345,0.9525
248.701,0.0168,0.987,0.0345,0.9525
248.801,0.0168,0.9885,0.0345,0.9525
248.9,0.0169,0.9885,0.0345,0.951
249,0.01685,0.99,0.0345,0.951
249.1,0.0169,0.99,0.0345,0.951
249.199,0.0169,0.9915,0.0345,0.951
249.3,0.01685,0.993,0.0345,0.951
249.401,0.0168,0.993,0.0345,0.9495
249.5,0.0169,0.9945,0.0345,0.9495
249.6,0.01685,0.9945,0.0345,0.9495
249.701,0.0168,0.996,0.0345,0.9495
249.8,0.0169,0.996,0.0345,0.948
249.9,0.01685,0.9975,0.0345,0.948
250,0.0169,0.9975,0.0345,0.948
250.099,0.0169,0.999,0.0345,0.948
250.199,0.01685,0.999,0.0345,0.948
250.3,0.0169,1.0005,0.036,0.9465
250.401,0.0168,1.0005,0.0345,0.9465
250.501,0.0168,1.002,0.036,0.9465
250.6,0.01685,1.002,0.0345,0.945
250.7,0.01685,1.0035,0.036,0.945
250.8,0.0169,1.0035,0.036,0.945
250.9,0.01685,1.005,0.036,0.945
251,0.0168,1.005,0.036,0.945
251.1,0.01685,1.0065,0.036,0.9435
251.2,0.01685,1.0065,0.036,0.9435
251.3,0.01685,1.008,0.036,0.9435
251.4,0.01685,1.008,0.036,0.9435
251.499,0.01685,1.0095,0.036,0.942
251.6,0.01685,1.0095,0.036,0.942
251.701,0.0168,1.011,0.036,0.942
251.8,0.01685,1.011,0.036,0.942
251.9,0.01685,1.0125,0.036,0.942
252,0.01685,1.0125,0.036,0.9405
252.1,0.01685,1.014,0.036,0.9405
252.201,0.0168,1.014,0.036,0.9405
252.3,0.01685,1.0155,0.036,0.939
252.4,0.0168,1.017,0.036,0.939
252.5,0.01685,1.017,0.036,0.939
252.6,0.01685,1.017,0.036,0.939
252.7,0.01685,1.0185,0.036,0.939
252.8,0.0169,1.02,0.036,0.9375
252.9,0.01685,1.02,0.036,0.9375
253,0.01685,1.0215,0.036,0.9375
253.101,0.0168,1.0215,0.036,0.9375
253.2,0.01685,1.023,0.036,0.936
253.3,0.01685,1.023,0.036,0.936
253.4,0.01685,1.0245,0.036,0.936
253.5,0.01685,1.0245,0.0375,0.936
253.6,0.0168,1.026,0.036,0.936
253.7,0.01685,1.026,0.036,0.9345
253.799,0.01685,1.0275,0.0375,0.9345
253.9,0.01685,1.0275,0.0375,0.9345
253.999,0.0169,1.029,0.0375,0.9345
254.1,0.01685,1.029,0.0375,0.933
254.2,0.01685,1.0305,0.0375,0.933
254.3,0.0167,1.0305,0.0375,0.933
254.4,0.01685,1.032,0.0375,0.933
254.501,0.01675,1.032,0.0375,0.933
254.6,0.01685,1.0335,0.0375,0.9315
254.7,0.0168,1.0335,0.0375,0.9315
254.8,0.01685,1.035,0.0375,0.9315
254.9,0.01685,1.035,0.0375,0.93
255.001,0.0168,1.0365,0.0375,0.93
255.1,0.0169,1.0365,0.0375,0.93
255.2,0.01685,1.038,0.0375,0.93
255.301,0.0168,1.038,0.0375,0.93
255.4,0.0168,1.0395,0.0375,0.9285
255.5,0.01685,1.0395,0.0375,0.9285
255.601,0.0168,1.041,0.0375,0.9285
255.7,0.01685,1.041,0.0375,0.9285
255.801,0.0168,1.041,0.0375,0.927
255.9,0.01685,1.0425,0.0375,0.927
255.999,0.0169,1.044,0.0375,0.927
256.099,0.0169,1.044,0.0375,0.927
256.2,0.01685,1.044,0.0375,0.927
256.3,0.01685,1.0455,0.0375,0.9255
256.401,0.0168,1.0455,0.039,0.9255
256.5,0.01685,1.047,0.0375,0.9255
256.6,0.0168,1.047,0.039,0.9255
256.701,0.0168,1.047,0.039,0.9255
256.8,0.0168,1.0485,0.039,0.924
256.9,0.01685,1.05,0.039,0.924
256.999,0.0169,1.05,0.039,0.924
257.1,0.01685,1.0515,0.039,0.924
257.2,0.01685,1.0515,0.039,0.9225
257.3,0.01685,1.053,0.039,0.9225
257.4,0.01685,1.053,0.039,0.9225
257.499,0.0169,1.0545,0.039,0.9225
257.599,0.01685,1.0545,0.039,0.921
257.7,0.01685,1.0545,0.039,0.921
257.8,0.01685,1.056,0.039,0.921
257.9,0.01685,1.056,0.039,0.921
258,0.01685,1.056,0.039,0.921
258.1,0.0168,1.0575,0.039,0.9195
258.2,0.01685,1.0575,0.039,0.9195
258.3,0.01685,1.059,0.039,0.9195
258.4,0.01685,1.059,0.039,0.9195
258.501,0.0168,1.0605,0.039,0.918
258.6,0.01685,1.0605,0.039,0.918
258.7,0.01685,1.062,0.039,0.918
258.799,0.0169,1.062,0.039,0.918
258.9,0.01685,1.0635,0.039,0.918
259.001,0.0168,1.0635,0.039,0.9165
259.1,0.0169,1.065,0.039,0.9165
259.2,0.01685,1.065,0.039,0.9165
259.299,0.0169,1.0665,0.039,0.915
259.4,0.01685,1.0665,0.039,0.915
259.5,0.01685,1.068,0.039,0.915
259.601,0.0168,1.068,0.039,0.915
259.7,0.01685,1.068,0.039,0.915
259.8,0.0168,1.0695,0.039,0.915
259.9,0.0168,1.0695,0.0405,0.9135
260.001,0.0168,1.071,0.039,0.9135
260.101,0.0168,1.071,0.0405,0.9135
260.199,0.0169,1.0725,0.0405,0.9135
260.3,0.0168,1.0725,0.0405,0.9135
260.401,0.0168,1.074,0.0405,0.912
260.499,0.01685,1.074,0.0405,0.912
260.6,0.01685,1.0755,0.0405,0.912
260.7,0.01685,1.0755,0.0405,0.912
260.801,0.0168,1.077,0.0405,0.912
260.9,0.01685,1.077,0.0405,0.9105
261,0.01685,1.077,0.0405,0.9105
261.101,0.01685,1.0785,0.0405,0.9105
261.2,0.0169,1.0785,0.0405,0.9105
261.3,0.01685,1.08,0.0405,0.909
261.4,0.0168,1.08,0.0405,0.909
261.5,0.01685,1.0815,0.0405,0.909
261.6,0.01685,1.0815,0.0405,0.909
261.7,0.01685,1.0815,0.0405,0.909
261.801,0.0168,1.083,0.0405,0.9075
261.9,0.01685,1.0845,0.0405,0.9075
262.001,0.0168,1.0845,0.0405,0.9075
262.1,0.01685,1.086,0.0405,0.9075
262.2,0.01685,1.086,0.0405,0.906
262.3,0.01685,1.086,0.0405,0.906
262.399,0.0169,1.0875,0.0405,0.906
262.5,0.01685,1.0875,0.0405,0.906
262.601,0.0168,1.0875,0.0405,0.906
262.699,0.0169,1.089,0.0405,0.9045
262.8,0.01685,1.089,0.0405,0.9045
262.9,0.01685,1.0905,0.042,0.9045
262.999,0.0169,1.0905,0.0405,0.9045
263.1,0.01685,1.092,0.0405,0.903
263.2,0.01685,1.092,0.0405,0.903
263.299,0.01685,1.0935,0.042,0.903
263.4,0.01685,1.0935,0.042,0.903
263.5,0.01685,1.095,0.042,0.903
263.601,0.0168,1.095,0.042,0.9015
263.7,0.0168,1.0965,0.042,0.9015
263.8,0.01685,1.0965,0.042,0.9015
263.899,0.0169,1.0965,0.042,0.9015
264,0.0169,1.098,0.042,0.9
264.1,0.0169,1.098,0.042,0.9
264.2,0.01685,1.0995,0.042,0.9
264.301,0.0168,1.0995,0.042,0.9
264.4,0.01685,1.101,0.042,0.8985
264.5,0.0168,1.101,0.042,0.9
264.6,0.0168,1.101,0.042,0.8985
264.7,0.0169,1.1025,0.042,0.8985
264.8,0.0169,1.104,0.042,0.8985
264.9,0.0168,1.104,0.042,0.8985
264.999,0.01685,1.104,0.042,0.897
265.1,0.0169,1.1055,0.042,0.897
265.2,0.01685,1.1055,0.042,0.897
265.3,0.01685,1.1055,0.042,0.897
265.4,0.0168,1.107,0.042,0.897
265.5,0.0169,1.107,0.042,0.8955
265.601,0.01685,1.1085,0.042,0.8955
265.7,0.0169,1.1085,0.042,0.8955
265.8,0.0169,1.11,0.042,0.8955
265.901,0.0168,1.11,0.042,0.8955
266.001,0.0168,1.11,0.042,0.894
266.1,0.0169,1.1115,0.042,0.894
266.2,0.0169,1.1115,0.042,0.894
266.3,0.0169,1.113,0.042,0.894
266.4,0.0169,1.113,0.042,0.8925
266.499,0.0169,1.1145,0.0435,0.8925
266.6,0.0169,1.1145,0.042,0.8925
266.7,0.0169,1.1145,0.042,0.8925
266.801,0.01685,1.116,0.0435,0.8925
266.901,0.01685,1.116,0.0435,0.8925
267,0.0169,1.1175,0.0435,0.891
267.1,0.0169,1.1175,0.0435,0.891
267.2,0.0169,1.1175,0.0435,0.891
267.3,0.0169,1.119,0.0435,0.8895
267.4,0.0169,1.119,0.0435,0.8895
267.5,0.0169,1.1205,0.0435,0.8895
267.6,0.0169,1.1205,0.0435,0.8895
267.7,0.0169,1.1205,0.0435,0.8895
267.801,0.01685,1.122,0.0435,0.888
267.9,0.0169,1.122,0.0435,0.888
268,0.0169,1.1235,0.0435,0.888
268.101,0.01685,1.1235,0.0435,0.888
268.2,0.0169,1.125,0.0435,0.888
268.3,0.0169,1.125,0.0435,0.8865
268.4,0.0169,1.125,0.0435,0.8865
268.501,0.01685,1.1265,0.0435,0.8865
268.6,0.0169,1.1265,0.0435,0.8865
268.7,0.0169,1.128,0.0435,0.885
268.8,0.0169,1.128,0.0435,0.885
268.899,0.0168,1.1295,0.0435,0.885
269,0.0169,1.1295,0.0435,0.885
269.099,0.0169,1.1295,0.0435,0.885
269.2,0.0169,1.131,0.0435,0.8835
269.3,0.0169,1.131,0.0435,0.8835
269.4,0.0169,1.1325,0.0435,0.8835
269.5,0.0169,1.1325,0.0435,0.8835
269.6,0.0169,1.134,0.0435,0.8835
269.7,0.01685,1.134,0.045,0.882
269.8,0.01685,1.134,0.045,0.882
269.9,0.0169,1.1355,0.045,0.882
269.999,0.01685,1.1355,0.045,0.882
270.101,0.0169,1.1355,0.045,0.882
270.2,0.01685,1.137,0.045,0.8805
270.3,0.0169,1.137,0.045,0.8805
270.4,0.01685,1.1385,0.045,0.8805
270.5,0.01685,1.1385,0.045,0.8805
270.6,0.01685,1.14,0.045,0.879
270.7,0.01685,1.14,0.045,0.879
270.799,0.0168,1.14,0.045,0.8775
270.899,0.01685,1.1415,0.045,0.879
271,0.0168,1.1415,0.045,0.879
271.101,0.0169,1.1415,0.045,0.8775
271.201,0.0169,1.143,0.045,0.8775
271.299,0.01675,1.143,0.045,0.876
271.4,0.0168,1.1445,0.045,0.8775
271.5,0.0168,1.1445,0.045,0.876
271.6,0.0168,1.146,0.045,0.876
271.701,0.01685,1.146,0.045,0.876
271.8,0.0168,1.146,0.045,0.876
271.899,0.0168,1.1475,0.045,0.8745
271.999,0.01675,1.1475,0.045,0.876
272.099,0.01675,1.1475,0.045,0.873
272.2,0.0168,1.149,0.045,0.8745
272.3,0.0168,1.149,0.045,0.8745
272.4,0.0168,1.1505,0.045,0.873
272.5,0.0168,1.1505,0.045,0.873
272.6,0.0168,1.1505,0.045,0.873
272.7,0.0168,1.152,0.045,0.873
272.8,0.0168,1.152,0.0465,0.873
272.899,0.0168,1.1535,0.0465,0.8715
272.999,0.0168,1.1535,0.0465,0.87
273.1,0.0168,1.1535,0.045,0.8715
273.2,0.0168,1.155,0.0465,0.8715
273.3,0.01675,1.155,0.0465,0.87
273.4,0.01675,1.155,0.0465,0.87
273.5,0.0169,1.1565,0.0465,0.87
273.6,0.0168,1.1565,0.0465,0.87
273.7,0.0168,1.158,0.0465,0.8685
273.8,0.0168,1.158,0.0465,0.8685
273.899,0.0168,1.158,0.0465,0.8685
274.001,0.01685,1.1595,0.0465,0.8685
274.1,0.0168,1.1595,0.0465,0.8685
274.2,0.01685,1.161,0.0465,0.8685
274.301,0.0169,1.161,0.0465,0.8685
274.4,0.01675,1.161,0.0465,0.867
274.5,0.0168,1.1625,0.0465,0.867
274.6,0.01675,1.1625,0.0465,0.867
274.7,0.0168,1.164,0.0465,0.867
274.799,0.01675,1.164,0.0465,0.8655
274.9,0.0168,1.164,0.0465,0.8655
275,0.0168,1.1655,0.0465,0.8655
275.1,0.0168,1.1655,0.0465,0.8655
275.2,0.0168,1.1655,0.0465,0.8655
275.3,0.0168,1.167,0.0465,0.864
275.4,0.01675,1.167,0.0465,0.864
275.499,0.0168,1.167,0.0465,0.8625
275.599,0.0168,1.1685,0.0465,0.8625
275.7,0.0168,1.1685,0.0465,0.864
275.801,0.0169,1.1685,0.048,0.864
275.9,0.0168,1.17,0.0465,0.8625
276,0.0168,1.17,0.0465,0.8625
276.1,0.01675,1.17,0.048,0.8625
276.2,0.0168,1.1715,0.048,0.8625
276.301,0.0169,1.1715,0.048,0.8625
276.4,0.01675,1.1715,0.048,0.861
276.499,0.0168,1.173,0.048,0.8595
276.599,0.01675,1.173,0.048,0.861
276.7,0.0168,1.1745,0.048,0.861
276.8,0.0168,1.1745,0.048,0.861
276.9,0.0168,1.1745,0.048,0.8595
277,0.01675,1.176,0.048,0.8595
277.101,0.0169,1.176,0.048,0.8595
277.2,0.0168,1.176,0.048,0.8595
277.3,0.01675,1.1775,0.048,0.858
277.4,0.0168,1.1775,0.048,0.858
277.5,0.01675,1.1775,0.048,0.858
277.599,0.0168,1.179,0.048,0.8565
277.7,0.0168,1.179,0.048,0.858
277.8,0.01675,1.179,0.048,0.858
277.9,0.0168,1.1805,0.048,0.8565
277.999,0.0168,1.1805,0.048,0.855
278.101,0.01685,1.1805,0.048,0.8565
278.201,0.0169,1.182,0.048,0.8565
278.3,0.0168,1.182,0.048,0.855
278.399,0.0168,1.182,0.048,0.8535
278.499,0.01675,1.1835,0.048,0.855
278.6,0.01675,1.1835,0.048,0.855
278.7,0.0168,1.1835,0.048,0.855
278.8,0.01685,1.185,0.048,0.855
278.901,0.01685,1.185,0.048,0.855
279,0.01675,1.185,0.048,0.8535
279.1,0.01685,1.1865,0.048,0.8535
279.2,0.01675,1.1865,0.048,0.8535
279.3,0.0168,1.1865,0.048,0.852
279.401,0.0169,1.188,0.048,0.8535
279.501,0.01685,1.188,0.048,0.8535
279.6,0.0168,1.188,0.048,0.852
279.7,0.01675,1.1895,0.048,0.852
279.801,0.0169,1.1895,0.048,0.852
279.901,0.01685,1.1895,0.048,0.852
280.001,0.0169,1.191,0.048,0.8505
280.1,0.0169,1.191,0.048,0.8505
280.2,0.01675,1.1925,0.0495,0.8505
280.299,0.0168,1.1925,0.0495,0.849
280.4,0.0168,1.1925,0.0495,0.849
280.499,0.0168,1.194,0.0495,0.849
280.6,0.01675,1.194,0.0495,0.849
280.7,0.01675,1.194,0.0495,0.849
280.8,0.01675,1.194,0.0495,0.849
280.9,0.01685,1.1955,0.0495,0.849
280.999,0.01675,1.1955,0.0495,0.8475
281.099,0.0168,1.197,0.0495,0.8475
281.2,0.01685,1.197,0.0495,0.8475
281.3,0.0168,1.197,0.0495,0.8475
281.4,0.01685,1.1985,0.0495,0.8475
281.5,0.01675,1.1985,0.0495,0.846
281.599,0.0168,1.1985,0.0495,0.8445
281.699,0.01675,1.1985,0.0495,0.846
281.8,0.0168,1.2,0.0495,0.8445
281.899,0.01675,1.2,0.0495,0.843
282,0.0168,1.2,0.0495,0.8445
282.1,0.0168,1.2,0.0495,0.8445
282.2,0.01675,1.2015,0.0495,0.8445
282.3,0.0168,1.2015,0.0495,0.8445
282.4,0.01675,1.2015,0.0495,0.843
282.5,0.0168,1.203,0.0495,0.843
282.599,0.01675,1.203,0.0495,0.843
282.7,0.0168,1.203,0.0495,0.843
282.799,0.0168,1.2045,0.0495,0.8415
282.9,0.0168,1.2045,0.0495,0.8415
283,0.01675,1.2045,0.0495,0.8415
283.101,0.0169,1.206,0.0495,0.8415
283.2,0.0168,1.206,0.0495,0.8415
283.3,0.01685,1.206,0.0495,0.8415
283.4,0.0169,1.2075,0.0495,0.8415
283.5,0.0168,1.2075,0.0495,0.84
283.599,0.01675,1.2075,0.0495,0.84
283.7,0.01675,1.209,0.0495,0.84
283.8,0.01675,1.209,0.0495,0.84
283.9,0.0168,1.209,0.051,0.8385
284,0.0168,1.209,0.0495,0.8385
284.1,0.01675,1.2105,0.051,0.8385
284.2,0.0168,1.2105,0.051,0.8385
284.301,0.01685,1.212,0.051,0.8385
284.399,0.0168,1.212,0.051,0.837
284.499,0.0168,1.212,0.051,0.8355
284.599,0.0168,1.212,0.051,0.8355
284.7,0.0168,1.2135,0.051,0.837
284.799,0.0168,1.2135,0.051,0.837
284.9,0.01675,1.2135,0.051,0.8355
285.001,0.01685,1.2135,0.051,0.837
285.101,0.01685,1.215,0.051,0.8355
285.199,0.0168,1.215,0.051,0.8355
285.299,0.01675,1.215,0.051,0.8355
285.4,0.01685,1.2165,0.051,0.8355
285.5,0.0168,1.2165,0.051,0.834
285.6,0.01675,1.2165,0.051,0.834
285.7,0.0168,1.218,0.051,0.834
285.801,0.0169,1.218,0.051,0.834
285.9,0.01685,1.218,0.051,0.834
286,0.0168,1.2195,0.051,0.8325
286.1,0.0168,1.2195,0.051,0.8325
286.2,0.01675,1.2195,0.051,0.8325
286.299,0.01675,1.2195,0.051,0.8325
286.4,0.01675,1.221,0.051,0.831
286.499,0.01675,1.221,0.051,0.831
286.6,0.01675,1.221,0.051,0.831
286.7,0.0168,1.2225,0.051,0.831
286.801,0.01685,1.2225,0.051,0.831
286.9,0.0168,1.2225,0.051,0.8295
286.999,0.0168,1.224,0.051,0.8295
287.1,0.0168,1.224,0.051,0.8295
287.199,0.01675,1.224,0.051,0.8295
287.301,0.01685,1.224,0.051,0.8295
287.4,0.01675,1.2255,0.051,0.828
287.5,0.0168,1.2255,0.051,0.828
287.6,0.0168,1.2255,0.051,0.828
287.7,0.0168,1.227,0.051,0.828
287.8,0.0168,1.227,0.051,0.828
287.9,0.0168,1.227,0.0525,0.8265
288,0.0168,1.227,0.0525,0.8265
288.099,0.0168,1.2285,0.0525,0.8265
288.2,0.0168,1.2285,0.0525,0.8265
288.299,0.01675,1.2285,0.0525,0.825
288.4,0.01675,1.23,0.0525,0.825
288.5,0.0168,1.23,0.0525,0.825
288.599,0.0168,1.23,0.0525,0.825
288.7,0.0168,1.23,0.0525,0.825
288.799,0.0168,1.2315,0.0525,0.825
288.9,0.0168,1.2315,0.0525,0.8235
289,0.0168,1.2315,0.0525,0.8235
289.1,0.01675,1.233,0.0525,0.8235
289.2,0.0168,1.233,0.0525,0.8235
289.3,0.01675,1.233,0.0525,0.822
289.4,0.01675,1.233,0.0525,0.822
289.5,0.01675,1.2345,0.0525,0.822
289.6,0.01675,1.2345,0.0525,0.822
289.7,0.01675,1.2345,0.0525,0.822
289.8,0.0168,1.2345,0.0525,0.822
289.9,0.0168,1.236,0.0525,0.822
290,0.01675,1.236,0.0525,0.8205
290.101,0.0168,1.236,0.0525,0.822
290.2,0.0168,1.236,0.0525,0.8205
290.299,0.01675,1.2375,0.0525,0.819
290.4,0.01675,1.2375,0.0525,0.819
290.501,0.0169,1.2375,0.0525,0.8205
290.6,0.0168,1.239,0.0525,0.819
290.7,0.01675,1.239,0.054,0.819
290.8,0.01675,1.239,0.0525,0.819
290.9,0.01675,1.239,0.0525,0.8175
291.001,0.01675,1.239,0.0525,0.819
291.101,0.01675,1.2405,0.0525,0.819
291.2,0.01675,1.2405,0.0525,0.8175
291.3,0.0169,1.242,0.0525,0.819
291.4,0.0168,1.242,0.054,0.816
291.5,0.0168,1.242,0.054,0.816
291.6,0.0168,1.242,0.0525,0.816
291.701,0.0168,1.2435,0.054,0.8175
291.8,0.0168,1.2435,0.054,0.816
291.9,0.0168,1.2435,0.054,0.8145
292,0.0168,1.2435,0.0525,0.816
292.1,0.0168,1.245,0.054,0.8145
292.2,0.01675,1.245,0.054,0.8145
292.299,0.0168,1.245,0.054,0.8145
292.4,0.01675,1.245,0.054,0.8145
292.5,0.0168,1.2465,0.054,0.813
292.6,0.01675,1.2465,0.054,0.813
292.699,0.0168,1.2465,0.054,0.813
292.8,0.0168,1.2465,0.054,0.813
292.9,0.0168,1.248,0.054,0.813
292.999,0.0168,1.248,0.054,0.8115
293.099,0.01675,1.248,0.054,0.8115
293.2,0.01675,1.248,0.054,0.8115
293.301,0.0168,1.2495,0.054,0.813
293.399,0.0168,1.2495,0.054,0.8115
293.5,0.01675,1.2495,0.054,0.8115
293.6,0.0168,1.2495,0.054,0.8115
293.7,0.01675,1.251,0.054,0.8115
293.8,0.0168,1.251,0.054,0.81
293.9,0.0168,1.251,0.054,0.81
294,0.01675,1.2525,0.054,0.81
294.1,0.01675,1.2525,0.054,0.81
294.2,0.01675,1.2525,0.054,0.8085
294.3,0.01675,1.254,0.054,0.8085
294.4,0.01675,1.254,0.054,0.8085
294.499,0.01675,1.254,0.054,0.8085
294.6,0.01675,1.254,0.054,0.8085
294.7,0.0168,1.2555,0.054,0.807
294.801,0.0168,1.2555,0.054,0.8085
294.901,0.01675,1.2555,0.054,0.807
295,0.0168,1.2555,0.054,0.807
295.101,0.0168,1.257,0.054,0.807
295.2,0.0168,1.257,0.054,0.807
295.3,0.01675,1.257,0.0555,0.8055
295.4,0.01675,1.257,0.0555,0.8055
295.5,0.01675,1.257,0.0555,0.8055
295.6,0.01675,1.2585,0.0555,0.8055
295.7,0.0168,1.2585,0.0555,0.804
295.8,0.0168,1.2585,0.0555,0.804
295.9,0.01675,1.2585,0.0555,0.804
296,0.01675,1.26,0.0555,0.804
296.099,0.0168,1.26,0.0555,0.8025
296.2,0.0168,1.26,0.0555,0.804
296.3,0.0168,1.26,0.0555,0.8025
296.4,0.01675,1.2615,0.0555,0.8025
296.5,0.0168,1.2615,0.0555,0.8025
296.6,0.01675,1.2615,0.0555,0.8025
296.7,0.01675,1.2615,0.0555,0.8025
296.8,0.01675,1.263,0.0555,0.801
296.9,0.01675,1.263,0.0555,0.801
297.001,0.01675,1.263,0.0555,0.8025
297.1,0.0168,1.263,0.0555,0.801
297.201,0.01675,1.263,0.0555,0.801
297.3,0.01675,1.2645,0.0555,0.7995
297.4,0.01675,1.2645,0.0555,0.801
297.5,0.0168,1.2645,0.0555,0.7995
297.6,0.01675,1.2645,0.0555,0.7995
297.7,0.01675,1.266,0.0555,0.7995
297.8,0.0168,1.266,0.0555,0.7995
297.9,0.0168,1.266,0.0555,0.798
298,0.0168,1.266,0.0555,0.798
298.1,0.01675,1.266,0.0555,0.798
298.2,0.01675,1.2675,0.0555,0.798
298.301,0.0168,1.2675,0.0555,0.798
298.4,0.0168,1.2675,0.0555,0.7965
298.499,0.0168,1.2675,0.0555,0.7965
298.6,0.0168,1.269,0.0555,0.7965
298.7,0.01675,1.269,0.0555,0.7965
298.801,0.01675,1.269,0.0555,0.7965
298.9,0.01675,1.269,0.0555,0.7965
299,0.01675,1.269,0.057,0.795
299.1,0.01675,1.2705,0.0555,0.795
299.2,0.01675,1.2705,0.0555,0.795
299.3,0.0168,1.2705,0.057,0.795
299.4,0.01675,1.2705,0.0555,0.7935
299.499,0.0168,1.2705,0.057,0.7935
299.6,0.01675,1.272,0.057,0.7935
299.699,0.0168,1.272,0.057,0.792
299.8,0.0168,1.272,0.057,0.7935
299.9,0.0168,1.272,0.057,0.792
300,0.01675,1.272,0.057,0.792
300.1,0.0168,1.2735,0.057,0.792
300.201,0.01675,1.2735,0.057,0.792
300.301,0.0168,1.2735,0.057,0.792
300.401,0.01675,1.2735,0.057,0.792
300.5,0.0168,1.2735,0.057,0.7905
300.601,0.0168,1.275,0.057,0.7905
300.7,0.0168,1.275,0.057,0.7905
300.8,0.0168,1.275,0.057,0.7905
300.899,0.0168,1.275,0.057,0.789
300.999,0.01675,1.2765,0.057,0.789
301.1,0.0168,1.2765,0.057,0.789
301.2,0.0168,1.2765,0.057,0.789
301.301,0.01675,1.2765,0.057,0.789
301.4,0.0168,1.2765,0.057,0.789
301.499,0.0168,1.2765,0.057,0.7875
301.599,0.01675,1.278,0.057,0.7875
301.7,0.01675,1.278,0.057,0.7875
301.8,0.0168,1.278,0.057,0.7875
301.9,0.01675,1.278,0.057,0.7875
302,0.0168,1.2795,0.057,0.7875
302.099,0.01675,1.2795,0.057,0.786
302.199,0.0168,1.2795,0.057,0.786
302.3,0.0168,1.2795,0.057,0.786
302.401,0.0168,1.2795,0.057,0.786
302.501,0.01675,1.281,0.057,0.786
302.6,0.0168,1.281,0.057,0.7845
302.7,0.0168,1.281,0.057,0.7845
302.8,0.01675,1.281,0.057,0.7845
302.9,0.01675,1.281,0.057,0.7845
302.999,0.01675,1.2825,0.057,0.783
303.1,0.0168,1.2825,0.057,0.7845
303.2,0.01675,1.2825,0.057,0.783
303.3,0.01675,1.2825,0.057,0.783
303.4,0.0168,1.284,0.057,0.7845
303.5,0.0168,1.284,0.0585,0.783
303.599,0.01675,1.284,0.057,0.783
303.699,0.01675,1.284,0.0585,0.7815
303.8,0.0168,1.284,0.0585,0.7815
303.9,0.0168,1.284,0.0585,0.783
304,0.0168,1.2855,0.0585,0.7815
304.1,0.01675,1.2855,0.0585,0.7815
304.199,0.01675,1.2855,0.0585,0.78
304.3,0.01675,1.2855,0.0585,0.78
304.4,0.01675,1.2855,0.0585,0.78
304.499,0.01675,1.287,0.0585,0.7785
304.599,0.01675,1.287,0.0585,0.78
304.7,0.01675,1.287,0.0585,0.78
304.799,0.01675,1.287,0.0585,0.7785
304.9,0.01675,1.287,0.0585,0.7785
305.001,0.01675,1.287,0.0585,0.78
305.099,0.0168,1.2885,0.0585,0.7785
305.2,0.0168,1.2885,0.0585,0.7785
305.3,0.01675,1.2885,0.0585,0.777
305.4,0.0168,1.2885,0.0585,0.777
305.5,0.0168,1.2885,0.0585,0.777
305.599,0.01675,1.2885,0.0585,0.7755
305.7,0.01675,1.29,0.0585,0.777
305.799,0.01675,1.29,0.0585,0.777
305.9,0.0168,1.29,0.0585,0.777
306,0.01675,1.29,0.0585,0.7755
306.1,0.0168,1.29,0.0585,0.7755
306.199,0.0167,1.2915,0.0585,0.774
306.299,0.0167,1.2915,0.0585,0.774
306.399,0.01675,1.2915,0.0585,0.7755
306.499,0.01675,1.2915,0.0585,0.774
306.6,0.0168,1.2915,0.0585,0.774
306.699,0.01665,1.2915,0.0585,0.774
306.799,0.0168,1.293,0.0585,0.774
306.899,0.01675,1.293,0.0585,0.774
306.999,0.01675,1.293,0.0585,0.774
307.1,0.01675,1.293,0.0585,0.7725
307.2,0.01675,1.293,0.0585,0.774
307.301,0.0168,1.293,0.0585,0.774
307.401,0.01675,1.2945,0.0585,0.7725
307.5,0.0168,1.2945,0.0585,0.7725
307.6,0.01675,1.2945,0.0585,0.7725
307.7,0.0168,1.2945,0.0585,0.771
307.8,0.0168,1.2945,0.0585,0.771
307.901,0.0168,1.296,0.0585,0.771
308,0.01675,1.296,0.06,0.771
308.1,0.01675,1.296,0.0585,0.771
308.201,0.01675,1.296,0.06,0.771
308.301,0.0168,1.296,0.0585,0.771
308.4,0.0168,1.296,0.06,0.7695
308.5,0.0168,1.296,0.06,0.7695
308.599,0.01665,1.2975,0.06,0.7695
308.7,0.0168,1.2975,0.06,0.7695
308.8,0.01675,1.2975,0.06,0.7695
308.9,0.01675,1.2975,0.06,0.768
309,0.0168,1.2975,0.06,0.768
309.099,0.0166,1.2975,0.06,0.768
309.2,0.01675,1.299,0.06,0.7695
309.3,0.0168,1.299,0.06,0.768
309.4,0.0168,1.299,0.06,0.768
309.5,0.0168,1.299,0.06,0.768
309.599,0.0168,1.299,0.06,0.7665
309.7,0.01675,1.299,0.06,0.7665
309.801,0.01675,1.299,0.06,0.768
309.9,0.0168,1.299,0.06,0.7665
310,0.01675,1.3005,0.06,0.7665
310.1,0.01675,1.3005,0.06,0.7665
310.2,0.0168,1.3005,0.06,0.765
310.3,0.01675,1.3005,0.06,0.765
310.399,0.01675,1.3005,0.06,0.765
310.5,0.0168,1.3005,0.06,0.765
310.6,0.01675,1.3005,0.06,0.765
310.7,0.01675,1.302,0.06,0.7635
310.8,0.0168,1.302,0.06,0.7635
310.899,0.01675,1.302,0.06,0.7635
311,0.01675,1.302,0.06,0.765
