Time t / s,Current I_A1 / A,Voltage U_B1 / V,Voltage U_B2 / V,Voltage U_A2 / V
0,0.01675,1.3485,0.072,0.6135
0.1,0.01675,1.347,0.072,0.6135
0.2,0.01685,1.347,0.072,0.612
0.3,0.01675,1.347,0.072,0.6135
0.399,0.0168,1.347,0.072,0.6135
0.5,0.01675,1.347,0.072,0.6135
0.601,0.0168,1.347,0.072,0.612
0.7,0.01675,1.347,0.072,0.612
0.8,0.01675,1.347,0.072,0.612
0.9,0.0168,1.347,0.072,0.612
1,0.01675,1.347,0.072,0.612
1.1,0.0168,1.347,0.072,0.612
1.2,0.01675,1.347,0.072,0.612
1.3,0.01675,1.347,0.072,0.612
1.399,0.01675,1.347,0.072,0.6135
1.499,0.01675,1.347,0.072,0.6135
1.599,0.01675,1.347,0.072,0.6135
1.7,0.01675,1.347,0.072,0.615
1.799,0.01675,1.347,0.072,0.6165
1.9,0.01675,1.347,0.072,0.6165
2.001,0.01675,1.347,0.072,0.6165
2.101,0.0168,1.347,0.072,0.6165
2.2,0.01675,1.347,0.072,0.6195
2.301,0.0168,1.347,0.072,0.6195
2.4,0.0168,1.347,0.072,0.621
2.499,0.01675,1.347,0.072,0.6225
2.6,0.01675,1.347,0.072,0.624
2.699,0.01675,1.347,0.072,0.624
2.799,0.01675,1.347,0.072,0.6255
2.899,0.01675,1.3485,0.072,0.627
3,0.0168,1.3485,0.072,0.6285
3.1,0.01675,1.3485,0.072,0.63
3.2,0.0168,1.3485,0.072,0.63
3.3,0.0168,1.3485,0.072,0.63
3.4,0.01675,1.3485,0.072,0.633
3.5,0.01675,1.3485,0.072,0.6345
3.6,0.01675,1.3485,0.072,0.633
3.7,0.01675,1.3485,0.072,0.6375
3.8,0.01675,1.3485,0.072,0.6375
3.899,0.01675,1.3485,0.072,0.639
4,0.01675,1.35,0.072,0.639
4.1,0.01675,1.35,0.072,0.6405
4.201,0.01675,1.35,0.072,0.642
4.301,0.01675,1.35,0.072,0.642
4.4,0.01675,1.35,0.072,0.645
4.501,0.01675,1.35,0.072,0.645
4.6,0.0168,1.35,0.072,0.6465
4.7,0.01675,1.35,0.072,0.648
4.8,0.01675,1.35,0.072,0.6495
4.899,0.01675,1.35,0.072,0.651
5,0.01675,1.35,0.072,0.6525
5.1,0.01675,1.35,0.072,0.654
5.2,0.01675,1.35,0.072,0.654
5.3,0.0168,1.35,0.0705,0.6555
5.4,0.0168,1.35,0.0705,0.657
5.499,0.01675,1.35,0.072,0.6585
5.6,0.01675,1.35,0.0705,0.66
5.699,0.01675,1.35,0.0705,0.66
5.8,0.01675,1.3515,0.0705,0.663
5.9,0.01675,1.35,0.0705,0.663
6,0.01675,1.35,0.0705,0.663
6.1,0.01675,1.3515,0.0705,0.666
6.2,0.01675,1.35,0.0705,0.6675
6.301,0.01675,1.3515,0.0705,0.6675
6.4,0.01675,1.3515,0.0705,0.669
6.5,0.01675,1.3515,0.0705,0.6705
6.6,0.01675,1.35,0.0705,0.672
6.699,0.01675,1.35,0.0705,0.6735
6.8,0.01675,1.35,0.0705,0.6735
6.9,0.01675,1.35,0.0705,0.6765
6.999,0.01675,1.35,0.0705,0.6765
7.1,0.01675,1.35,0.0705,0.678
7.2,0.01675,1.35,0.0705,0.678
7.3,0.01675,1.35,0.0705,0.6795
7.399,0.01675,1.35,0.069,0.6825
7.5,0.01675,1.35,0.069,0.6825
7.6,0.01675,1.35,0.0705,0.684
7.7,0.01675,1.35,0.069,0.6855
7.799,0.0168,1.35,0.069,0.6855
7.9,0.01675,1.35,0.069,0.687
8,0.01675,1.3485,0.069,0.6885
8.1,0.01675,1.3485,0.069,0.6885
8.2,0.01675,1.3485,0.069,0.6915
8.3,0.01675,1.3485,0.069,0.6915
8.4,0.01675,1.3485,0.069,0.693
8.5,0.01675,1.3485,0.069,0.6945
8.601,0.01675,1.3485,0.069,0.696
8.7,0.0168,1.3485,0.069,0.696
8.799,0.01675,1.347,0.069,0.699
8.9,0.01675,1.347,0.069,0.7005
9.001,0.01675,1.347,0.069,0.7005
9.1,0.01675,1.347,0.069,0.7005
9.2,0.01675,1.347,0.0675,0.702
9.3,0.01675,1.3455,0.0675,0.705
9.4,0.0168,1.3455,0.0675,0.7065
9.5,0.01675,1.3455,0.0675,0.7065
9.6,0.01675,1.3455,0.0675,0.708
9.7,0.01675,1.3455,0.0675,0.7095
9.8,0.01675,1.344,0.0675,0.711
9.9,0.01675,1.344,0.0675,0.711
10,0.01675,1.344,0.0675,0.714
10.1,0.01675,1.344,0.0675,0.714
10.199,0.01675,1.344,0.0675,0.7155
10.3,0.01675,1.3425,0.0675,0.717
10.4,0.01675,1.3425,0.0675,0.7185
10.499,0.01675,1.341,0.0675,0.72
10.6,0.01675,1.341,0.0675,0.72
10.7,0.01675,1.341,0.066,0.7215
10.8,0.01675,1.341,0.066,0.7215
10.9,0.01675,1.3395,0.066,0.7245
11,0.01675,1.3395,0.066,0.7245
11.1,0.01675,1.338,0.066,0.726
11.2,0.01675,1.338,0.066,0.7275
11.301,0.01675,1.338,0.066,0.7275
11.4,0.01675,1.338,0.066,0.7305
11.5,0.01675,1.3365,0.066,0.732
11.6,0.01675,1.3365,0.066,0.732
11.7,0.01675,1.335,0.066,0.7335
11.799,0.01665,1.335,0.0645,0.735
11.9,0.01675,1.335,0.0645,0.7365
12,0.01675,1.3335,0.0645,0.738
12.101,0.01675,1.3335,0.0645,0.738
12.2,0.01675,1.332,0.0645,0.7395
12.3,0.0168,1.332,0.0645,0.741
12.4,0.01675,1.3305,0.0645,0.7425
12.5,0.01675,1.3305,0.0645,0.7425
12.6,0.01675,1.329,0.0645,0.744
12.7,0.01675,1.329,0.0645,0.7455
12.8,0.01675,1.3275,0.0645,0.747
12.899,0.01665,1.3275,0.0645,0.7485
13,0.01675,1.326,0.0645,0.75
13.1,0.01675,1.326,0.063,0.75
13.199,0.0166,1.3245,0.063,0.753
13.3,0.01675,1.3245,0.063,0.753
13.4,0.0167,1.323,0.063,0.7545
13.5,0.01675,1.3215,0.063,0.756
13.6,0.0167,1.3215,0.063,0.7575
13.7,0.0167,1.32,0.063,0.7575
13.8,0.0167,1.32,0.063,0.759
13.899,0.01665,1.3185,0.063,0.7605
14,0.01665,1.3185,0.063,0.762
14.1,0.0166,1.317,0.063,0.7635
14.2,0.0166,1.317,0.0615,0.7635
14.3,0.0166,1.3155,0.0615,0.765
14.399,0.01665,1.314,0.0615,0.768
14.499,0.0166,1.314,0.0615,0.768
14.6,0.0166,1.3125,0.0615,0.768
14.7,0.01655,1.3125,0.0615,0.7695
14.799,0.0167,1.311,0.0615,0.771
14.899,0.0167,1.3095,0.0615,0.7725
15,0.0166,1.308,0.0615,0.7725
15.1,0.01675,1.308,0.0615,0.774
15.2,0.0166,1.3065,0.0615,0.7755
15.299,0.0167,1.305,0.06,0.777
15.4,0.0166,1.305,0.06,0.777
15.499,0.0166,1.3035,0.06,0.7785
15.6,0.01675,1.302,0.06,0.78
15.7,0.0166,1.3005,0.06,0.7815
15.8,0.01665,1.3005,0.06,0.783
15.9,0.01665,1.299,0.06,0.7845
16,0.01665,1.2975,0.06,0.7845
16.099,0.01675,1.2975,0.06,0.786
16.199,0.01675,1.296,0.06,0.7875
16.3,0.01665,1.2945,0.06,0.789
16.4,0.0167,1.293,0.0585,0.789
16.5,0.01665,1.293,0.0585,0.7905
16.599,0.01675,1.2915,0.0585,0.792
16.7,0.01665,1.29,0.0585,0.7935
16.8,0.01665,1.2885,0.0585,0.795
16.9,0.01665,1.287,0.0585,0.795
17,0.0166,1.2855,0.0585,0.7965
17.1,0.0167,1.2855,0.0585,0.798
17.2,0.0167,1.284,0.0585,0.7995
17.301,0.01655,1.2825,0.0585,0.7995
17.401,0.0166,1.281,0.0585,0.801
17.501,0.0166,1.2795,0.057,0.8025
17.6,0.01665,1.278,0.057,0.804
17.699,0.0167,1.2765,0.057,0.8055
17.8,0.0167,1.275,0.057,0.807
17.9,0.0167,1.2735,0.057,0.807
18,0.01675,1.272,0.057,0.8085
18.1,0.01675,1.2705,0.057,0.81
18.202,0.01675,1.2705,0.057,0.81
18.3,0.01675,1.269,0.057,0.8115
18.4,0.01675,1.2675,0.0555,0.813
18.5,0.01675,1.266,0.0555,0.8145
18.599,0.0168,1.2645,0.0555,0.8145
18.699,0.01675,1.263,0.0555,0.816
18.8,0.01675,1.2615,0.0555,0.8175
18.9,0.0166,1.26,0.0555,0.8175
19,0.01675,1.2585,0.0555,0.819
19.1,0.01675,1.257,0.0555,0.8205
19.2,0.01675,1.2555,0.0555,0.8205
19.3,0.01675,1.254,0.054,0.822
19.4,0.0168,1.2525,0.054,0.8235
19.499,0.01675,1.251,0.054,0.825
19.599,0.01675,1.2495,0.054,0.8265
19.7,0.01675,1.248,0.054,0.828
19.8,0.01675,1.245,0.054,0.828
19.9,0.0168,1.2435,0.054,0.8295
20,0.01675,1.242,0.054,0.831
20.099,0.0168,1.242,0.054,0.831
20.2,0.0168,1.239,0.0525,0.8325
20.3,0.0167,1.2375,0.054,0.834
20.4,0.0167,1.236,0.0525,0.8355
20.5,0.0168,1.2345,0.0525,0.837
20.599,0.01685,1.233,0.0525,0.837
20.699,0.0168,1.2315,0.0525,0.8385
20.8,0.0168,1.23,0.0525,0.84
20.9,0.0168,1.227,0.0525,0.84
21.001,0.01675,1.2255,0.0525,0.843
21.1,0.0168,1.224,0.0525,0.843
21.2,0.0168,1.2225,0.051,0.843
21.3,0.0168,1.221,0.051,0.846
21.4,0.0168,1.2195,0.051,0.846
21.5,0.0168,1.2165,0.051,0.8475
21.599,0.0168,1.215,0.051,0.849
21.7,0.01675,1.2135,0.051,0.8505
21.8,0.0168,1.212,0.051,0.8505
21.9,0.0168,1.209,0.051,0.852
22,0.0168,1.2075,0.051,0.8535
22.1,0.0168,1.206,0.0495,0.855
22.2,0.0168,1.2045,0.0495,0.855
22.3,0.01675,1.2015,0.0495,0.8565
22.399,0.01685,1.2,0.0495,0.858
22.5,0.0168,1.1985,0.0495,0.858
22.6,0.0168,1.197,0.0495,0.8595
22.699,0.01685,1.1955,0.0495,0.861
22.799,0.01685,1.1925,0.0495,0.8625
22.9,0.01685,1.191,0.0495,0.8625
23.001,0.0168,1.1895,0.0495,0.864
23.1,0.01685,1.188,0.048,0.8655
23.2,0.0168,1.185,0.048,0.867
23.3,0.0168,1.1835,0.048,0.867
23.4,0.0168,1.182,0.048,0.8685
23.499,0.0169,1.179,0.048,0.87
23.6,0.01685,1.1775,0.048,0.8715
23.7,0.01685,1.176,0.048,0.8715
23.8,0.0168,1.173,0.048,0.873
23.9,0.0168,1.1715,0.048,0.8745
24,0.01685,1.17,0.048,0.8745
24.1,0.01685,1.167,0.048,0.876
24.2,0.0169,1.1655,0.0465,0.8775
24.3,0.01685,1.164,0.0465,0.879
24.399,0.01685,1.161,0.0465,0.879
24.5,0.01685,1.1595,0.0465,0.8805
24.6,0.01685,1.1565,0.0465,0.882
24.7,0.01685,1.155,0.0465,0.8835
24.8,0.0168,1.1535,0.0465,0.885
24.9,0.0168,1.1505,0.0465,0.8865
25,0.0169,1.149,0.0465,0.8865
25.1,0.01685,1.1475,0.045,0.888
25.2,0.01685,1.1445,0.045,0.8895
25.3,0.01685,1.143,0.045,0.8895
25.4,0.0169,1.14,0.045,0.891
25.5,0.01685,1.1385,0.045,0.8925
25.6,0.0168,1.137,0.045,0.8925
25.7,0.0169,1.134,0.045,0.894
25.8,0.0169,1.1325,0.045,0.8955
25.9,0.01685,1.1295,0.045,0.897
26,0.01685,1.128,0.0435,0.8985
26.1,0.0168,1.125,0.0435,0.8985
26.2,0.0169,1.1235,0.0435,0.9
26.3,0.0169,1.1205,0.0435,0.9015
26.4,0.0169,1.119,0.0435,0.9015
26.5,0.0169,1.116,0.0435,0.903
26.6,0.0168,1.1145,0.0435,0.9045
26.7,0.01685,1.1115,0.0435,0.906
26.8,0.0169,1.11,0.042,0.906
26.899,0.01685,1.107,0.042,0.9075
27.001,0.01685,1.1055,0.042,0.909
27.1,0.0169,1.104,0.042,0.909
27.2,0.0169,1.101,0.042,0.9105
27.299,0.0168,1.0995,0.042,0.912
27.4,0.0169,1.098,0.042,0.912
27.5,0.0169,1.095,0.042,0.9135
27.6,0.01685,1.092,0.042,0.915
27.7,0.01685,1.0905,0.042,0.9165
27.799,0.0169,1.0875,0.042,0.9165
27.899,0.0169,1.086,0.0405,0.918
28,0.0169,1.083,0.0405,0.9195
28.099,0.0169,1.0815,0.0405,0.9195
28.2,0.01685,1.0785,0.0405,0.921
28.3,0.0169,1.077,0.0405,0.9225
28.399,0.0169,1.074,0.0405,0.924
28.5,0.0169,1.0725,0.0405,0.924
28.599,0.0169,1.0695,0.0405,0.9255
28.699,0.0169,1.068,0.0405,0.927
28.8,0.0169,1.065,0.039,0.9285
28.901,0.01685,1.062,0.039,0.9285
29,0.0169,1.0605,0.039,0.93
29.101,0.01685,1.0575,0.039,0.9315
29.201,0.01685,1.056,0.039,0.9315
29.3,0.0169,1.0545,0.039,0.933
29.4,0.0169,1.0515,0.039,0.9345
29.5,0.0169,1.05,0.039,0.936
29.601,0.0169,1.047,0.039,0.936
29.7,0.01685,1.0455,0.039,0.9375
29.8,0.0169,1.0425,0.039,0.939
29.901,0.01685,1.0395,0.0375,0.9405
30,0.01685,1.038,0.0375,0.9405
30.101,0.01685,1.035,0.0375,0.942
30.2,0.0169,1.0335,0.0375,0.9435
30.299,0.0169,1.0305,0.0375,0.9435
30.4,0.0169,1.0275,0.0375,0.945
30.5,0.01685,1.026,0.0375,0.9465
30.6,0.01685,1.023,0.0375,0.948
30.7,0.0169,1.0215,0.036,0.948
30.8,0.0169,1.0185,0.036,0.9495
30.9,0.0169,1.017,0.036,0.951
30.999,0.0168,1.014,0.036,0.951
31.1,0.0169,1.0125,0.036,0.9525
31.2,0.0169,1.0095,0.036,0.954
31.3,0.01685,1.0065,0.036,0.9555
31.4,0.01685,1.005,0.036,0.957
31.5,0.0169,1.002,0.036,0.957
31.6,0.01685,1.0005,0.0345,0.9585
31.7,0.01685,0.9975,0.036,0.96
31.8,0.01685,0.996,0.0345,0.96
31.9,0.01685,0.993,0.0345,0.9615
32.001,0.0169,0.99,0.0345,0.963
32.1,0.0169,0.9885,0.0345,0.963
32.2,0.0169,0.9855,0.0345,0.9645
32.301,0.0169,0.984,0.0345,0.966
32.401,0.01685,0.981,0.0345,0.9675
32.501,0.01685,0.978,0.0345,0.969
32.6,0.01685,0.975,0.0345,0.969
32.7,0.0169,0.9735,0.0345,0.9705
32.8,0.01685,0.972,0.0345,0.972
32.9,0.0169,0.969,0.033,0.972
33.001,0.01685,0.966,0.0345,0.975
33.1,0.01685,0.9645,0.033,0.975
33.199,0.01685,0.9615,0.033,0.9765
33.3,0.01685,0.96,0.033,0.9765
33.4,0.0169,0.957,0.033,0.978
33.499,0.0169,0.954,0.033,0.9795
33.6,0.0169,0.9525,0.033,0.9795
33.7,0.0169,0.9495,0.033,0.981
33.799,0.01685,0.948,0.033,0.9825
33.9,0.0169,0.945,0.0315,0.984
34,0.0169,0.942,0.0315,0.984
34.1,0.0169,0.9405,0.0315,0.9855
34.2,0.01685,0.9375,0.0315,0.987
34.3,0.0169,0.9345,0.0315,0.9885
34.399,0.0169,0.933,0.0315,0.9885
34.5,0.0169,0.93,0.0315,0.99
34.601,0.0169,0.9285,0.0315,0.9915
34.7,0.0169,0.9255,0.0315,0.9915
34.8,0.01685,0.924,0.0315,0.993
34.901,0.0168,0.921,0.0315,0.9945
35,0.0169,0.918,0.03,0.996
35.099,0.01685,0.9165,0.03,0.996
35.2,0.01685,0.9135,0.03,0.9975
35.3,0.0169,0.912,0.03,0.999
35.401,0.0169,0.909,0.03,1.0005
35.5,0.0169,0.9075,0.03,1.0005
35.6,0.0169,0.9045,0.03,1.002
35.699,0.0168,0.903,0.03,1.002
35.799,0.0168,0.9,0.03,1.0035
35.9,0.01685,0.897,0.03,1.005
36,0.01685,0.8955,0.03,1.0065
36.1,0.0169,0.8925,0.03,1.008
36.2,0.01685,0.891,0.03,1.008
36.3,0.01685,0.888,0.03,1.0095
36.4,0.0169,0.885,0.0285,1.011
36.5,0.01685,0.8835,0.0285,1.011
36.599,0.01675,0.8805,0.0285,1.011
36.699,0.01675,0.879,0.0285,1.0125
36.8,0.01685,0.876,0.0285,1.014
36.9,0.01685,0.873,0.0285,1.0155
37,0.01685,0.8715,0.0285,1.017
37.101,0.0169,0.8685,0.0285,1.0185
37.2,0.01685,0.867,0.0285,1.0185
37.3,0.0169,0.864,0.0285,1.02
37.4,0.0168,0.8625,0.027,1.02
37.5,0.0168,0.8595,0.027,1.0215
37.599,0.01685,0.858,0.027,1.023
37.7,0.0169,0.855,0.027,1.0245
37.8,0.01685,0.852,0.027,1.026
37.899,0.0168,0.8505,0.027,1.026
37.999,0.0168,0.8475,0.027,1.0275
38.1,0.0168,0.846,0.027,1.0275
38.2,0.0168,0.843,0.027,1.029
38.299,0.0168,0.8415,0.027,1.029
38.4,0.0168,0.8385,0.027,1.032
38.5,0.0168,0.837,0.027,1.032
38.6,0.0168,0.834,0.027,1.0335
38.7,0.0168,0.831,0.027,1.035
38.8,0.0169,0.8295,0.0255,1.0365
38.899,0.0168,0.8265,0.0255,1.0365
39,0.0168,0.825,0.0255,1.038
39.1,0.0168,0.822,0.0255,1.038
39.2,0.0168,0.8205,0.0255,1.0395
39.299,0.0168,0.8175,0.0255,1.0395
39.4,0.0168,0.816,0.0255,1.0425
39.499,0.0168,0.813,0.0255,1.0425
39.603,0.0168,0.8115,0.0255,1.0455
39.699,0.01675,0.81,0.0255,1.0455
39.8,0.0169,0.807,0.0255,1.047
39.9,0.0169,0.804,0.0255,1.0485
40,0.01685,0.8025,0.024,1.0485
40.099,0.0168,0.7995,0.024,1.05
40.199,0.0168,0.798,0.024,1.05
40.3,0.01675,0.795,0.024,1.0515
40.4,0.0168,0.7935,0.024,1.0515
40.5,0.0168,0.792,0.024,1.053
40.6,0.0168,0.789,0.024,1.0545
40.701,0.01685,0.786,0.024,1.056
40.8,0.01685,0.7845,0.024,1.0575
40.9,0.01685,0.7815,0.024,1.0575
41,0.0168,0.78,0.024,1.0575
41.099,0.0168,0.777,0.024,1.059
41.2,0.0168,0.7755,0.024,1.0605
41.3,0.0168,0.7725,0.024,1.0605
41.4,0.0168,0.771,0.024,1.062
41.5,0.0168,0.7695,0.0225,1.0635
41.601,0.01685,0.7665,0.024,1.065
41.7,0.0168,0.765,0.0225,1.065
41.8,0.0168,0.762,0.0225,1.065
41.899,0.0168,0.7605,0.0225,1.0665
42,0.0168,0.759,0.0225,1.068
42.099,0.0168,0.756,0.0225,1.068
42.199,0.01675,0.7545,0.0225,1.0695
42.299,0.0168,0.7515,0.0225,1.071
42.4,0.0168,0.75,0.0225,1.0725
42.499,0.0168,0.747,0.0225,1.0725
42.6,0.0168,0.7455,0.0225,1.074
42.699,0.01675,0.744,0.0225,1.0755
42.8,0.0168,0.741,0.0225,1.077
42.9,0.0168,0.7395,0.0225,1.0785
43,0.01675,0.7365,0.0225,1.0785
43.1,0.0168,0.735,0.0225,1.0785
43.201,0.0168,0.732,0.0225,1.0815
43.3,0.0168,0.7305,0.021,1.083
43.4,0.0168,0.729,0.021,1.083
43.5,0.0168,0.726,0.021,1.083
43.6,0.0168,0.7245,0.021,1.0845
43.7,0.01675,0.7215,0.021,1.086
43.8,0.0168,0.72,0.021,1.086
43.901,0.0168,0.7185,0.021,1.0875
44,0.01685,0.717,0.021,1.089
44.099,0.0168,0.714,0.021,1.089
44.2,0.0168,0.7125,0.021,1.0905
44.301,0.0168,0.711,0.021,1.092
44.4,0.0168,0.708,0.021,1.0935
44.499,0.0168,0.7065,0.021,1.0935
44.6,0.0168,0.7035,0.021,1.095
44.7,0.0168,0.702,0.021,1.0965
44.8,0.0168,0.7005,0.021,1.0965
44.9,0.0168,0.6975,0.021,1.098
45,0.0168,0.696,0.021,1.0995
45.1,0.0168,0.6945,0.0195,1.0995
45.2,0.0168,0.6915,0.0195,1.101
45.3,0.0168,0.69,0.0195,1.101
45.4,0.0168,0.6885,0.0195,1.1025
45.499,0.0168,0.687,0.0195,1.1025
45.6,0.0168,0.684,0.0195,1.104
45.7,0.0168,0.6825,0.0195,1.1055
45.8,0.0168,0.6795,0.0195,1.1055
45.9,0.0168,0.678,0.0195,1.107
46,0.0168,0.6765,0.0195,1.1085
46.1,0.0168,0.675,0.0195,1.11
46.2,0.01675,0.6735,0.0195,1.1115
46.3,0.0168,0.6705,0.0195,1.1115
46.401,0.0168,0.669,0.0195,1.113
46.5,0.0168,0.6675,0.0195,1.1145
46.599,0.0168,0.6645,0.0195,1.1145
46.7,0.0168,0.663,0.0195,1.1145
46.8,0.01675,0.6615,0.0195,1.116
46.901,0.0168,0.66,0.018,1.1175
47,0.0168,0.657,0.018,1.1175
47.1,0.0168,0.6555,0.018,1.119
47.2,0.0168,0.654,0.018,1.1205
47.3,0.0168,0.651,0.018,1.1205
47.399,0.01665,0.651,0.018,1.1205
47.499,0.0168,0.648,0.018,1.122
47.599,0.01675,0.6465,0.018,1.1235
47.699,0.0168,0.645,0.018,1.125
47.8,0.0168,0.642,0.018,1.125
47.901,0.0168,0.6405,0.018,1.128
48,0.0168,0.639,0.018,1.128
48.1,0.0168,0.6375,0.018,1.128
48.199,0.0168,0.636,0.018,1.1295
48.3,0.01675,0.633,0.018,1.1295
48.4,0.0168,0.6315,0.018,1.1325
48.499,0.0168,0.63,0.018,1.1325
48.599,0.0168,0.6285,0.018,1.1325
48.7,0.01675,0.627,0.018,1.134
48.8,0.01675,0.624,0.018,1.1355
48.9,0.01675,0.6225,0.018,1.1355
49,0.0167,0.621,0.018,1.137
49.099,0.0167,0.6195,0.018,1.137
49.2,0.01665,0.618,0.018,1.1385
49.3,0.0168,0.6165,0.0165,1.14
49.4,0.0168,0.615,0.0165,1.1415
49.5,0.0166,0.6135,0.0165,1.1415
49.599,0.0166,0.6105,0.0165,1.143
49.7,0.01665,0.609,0.0165,1.143
49.8,0.01665,0.6075,0.0165,1.1445
49.899,0.01665,0.606,0.0165,1.146
50,0.01665,0.6045,0.0165,1.146
50.099,0.0167,0.603,0.0165,1.1475
50.2,0.01665,0.6015,0.0165,1.1475
50.301,0.01675,0.6,0.0165,1.1505
50.4,0.01665,0.5985,0.0165,1.1505
50.499,0.0167,0.5955,0.0165,1.152
50.6,0.01665,0.594,0.0165,1.152
50.7,0.0167,0.5925,0.0165,1.1535
50.8,0.0167,0.591,0.0165,1.1535
50.899,0.0168,0.5895,0.0165,1.155
50.999,0.0167,0.588,0.0165,1.1565
51.1,0.01665,0.5865,0.0165,1.158
51.2,0.0167,0.585,0.0165,1.158
51.3,0.0167,0.582,0.0165,1.1595
51.401,0.0166,0.5805,0.0165,1.161
51.5,0.0167,0.579,0.0165,1.161
51.6,0.0167,0.5775,0.0165,1.1625
51.7,0.01675,0.576,0.0165,1.1625
51.8,0.01675,0.5745,0.015,1.164
51.9,0.01675,0.573,0.015,1.164
52,0.01665,0.5715,0.015,1.1655
52.1,0.01675,0.57,0.015,1.167
52.2,0.0168,0.5685,0.015,1.1685
52.3,0.01675,0.567,0.015,1.1685
52.4,0.01675,0.5655,0.015,1.17
52.5,0.01665,0.564,0.015,1.1715
52.6,0.01665,0.5625,0.015,1.1715
52.7,0.0168,0.561,0.015,1.173
52.8,0.0168,0.5595,0.015,1.1745
52.9,0.0168,0.558,0.015,1.1745
52.999,0.01685,0.5565,0.015,1.176
53.099,0.0168,0.555,0.015,1.1775
53.201,0.0167,0.5535,0.015,1.1775
53.3,0.0168,0.552,0.015,1.179
53.399,0.01685,0.5505,0.015,1.1805
53.5,0.0168,0.549,0.015,1.1805
53.6,0.0168,0.5475,0.015,1.182
53.699,0.01685,0.546,0.015,1.1835
53.801,0.01675,0.5445,0.015,1.1835
53.9,0.0168,0.543,0.015,1.185
54,0.01685,0.5415,0.015,1.1865
54.101,0.01675,0.5385,0.015,1.1865
54.2,0.01685,0.537,0.015,1.188
54.3,0.01675,0.5355,0.015,1.1895
54.4,0.0168,0.534,0.015,1.191
54.499,0.01685,0.5325,0.015,1.191
54.6,0.01685,0.531,0.0135,1.1925
54.7,0.0168,0.5295,0.0135,1.1925
54.8,0.01685,0.528,0.015,1.194
54.9,0.0168,0.528,0.0135,1.1955
55,0.0168,0.5265,0.0135,1.197
55.1,0.01685,0.525,0.0135,1.197
55.2,0.01685,0.5235,0.0135,1.1985
55.3,0.01685,0.522,0.0135,1.2
55.4,0.01685,0.5205,0.0135,1.2
55.5,0.0168,0.519,0.0135,1.2015
55.6,0.0168,0.5175,0.0135,1.2015
55.699,0.01685,0.516,0.0135,1.203
55.8,0.0169,0.5145,0.0135,1.2045
55.9,0.01685,0.513,0.0135,1.2045
55.999,0.01685,0.5115,0.0135,1.206
56.1,0.0169,0.51,0.0135,1.2075
56.199,0.01685,0.5085,0.0135,1.2075
56.3,0.01685,0.507,0.0135,1.209
56.401,0.0168,0.5055,0.0135,1.209
56.5,0.0169,0.504,0.0135,1.212
56.6,0.0169,0.5025,0.0135,1.212
56.701,0.01685,0.501,0.0135,1.2135
56.8,0.0169,0.4995,0.0135,1.2135
56.899,0.0169,0.498,0.0135,1.215
57,0.0169,0.4965,0.0135,1.2165
57.1,0.01685,0.495,0.0135,1.2165
57.2,0.0169,0.4935,0.0135,1.218
57.3,0.01685,0.492,0.0135,1.2195
57.4,0.0169,0.492,0.0135,1.2195
57.5,0.0169,0.4905,0.0135,1.221
57.599,0.0169,0.489,0.0135,1.2225
57.7,0.01685,0.4875,0.0135,1.2225
57.8,0.0169,0.486,0.0135,1.224
57.9,0.0169,0.4845,0.0135,1.2255
58,0.01685,0.483,0.0135,1.2255
58.1,0.0169,0.4815,0.012,1.227
58.2,0.0169,0.48,0.012,1.2285
58.3,0.0169,0.48,0.0135,1.2285
58.399,0.0168,0.4785,0.012,1.23
58.5,0.0169,0.477,0.012,1.2315
58.6,0.0169,0.4755,0.012,1.2315
58.7,0.0169,0.474,0.012,1.233
58.8,0.0169,0.4725,0.012,1.2345
58.9,0.0169,0.471,0.012,1.2345
59,0.0169,0.471,0.012,1.236
59.1,0.01685,0.4695,0.012,1.2375
59.2,0.01685,0.468,0.012,1.2375
59.299,0.01685,0.4665,0.012,1.239
59.4,0.0169,0.465,0.012,1.2405
59.5,0.01685,0.4635,0.012,1.2405
59.6,0.01685,0.462,0.012,1.242
59.7,0.0169,0.4605,0.012,1.2435
59.8,0.0169,0.4605,0.012,1.2435
59.9,0.01685,0.459,0.012,1.245
60,0.0168,0.4575,0.012,1.2465
60.1,0.0169,0.456,0.012,1.2465
60.2,0.0168,0.4545,0.012,1.248
60.3,0.0168,0.453,0.012,1.248
60.4,0.0168,0.453,0.012,1.2495
60.5,0.0169,0.4515,0.012,1.2495
60.6,0.0168,0.45,0.012,1.2525
60.699,0.0168,0.4485,0.012,1.2525
60.8,0.0168,0.447,0.012,1.254
60.899,0.0168,0.4455,0.012,1.254
61,0.0168,0.444,0.012,1.2555
61.1,0.0169,0.444,0.012,1.2555
61.2,0.0168,0.4425,0.012,1.257
61.3,0.0168,0.441,0.012,1.2585
61.4,0.0168,0.4395,0.012,1.26
61.5,0.01685,0.438,0.0105,1.26
61.6,0.01685,0.438,0.012,1.26
61.7,0.0168,0.4365,0.012,1.2615
61.8,0.01685,0.435,0.012,1.263
61.9,0.0168,0.4335,0.0105,1.2645
62,0.0168,0.432,0.0105,1.266
62.101,0.01685,0.432,0.012,1.266
62.2,0.01685,0.4305,0.012,1.266
62.3,0.0168,0.429,0.0105,1.269
62.4,0.0168,0.429,0.0105,1.2705
62.499,0.0168,0.4275,0.0105,1.2705
62.6,0.0168,0.426,0.0105,1.272
62.7,0.0168,0.4245,0.0105,1.2735
62.8,0.0168,0.4245,0.0105,1.2735
62.899,0.0168,0.423,0.0105,1.275
62.999,0.0168,0.4215,0.0105,1.2765
63.1,0.01685,0.42,0.0105,1.2765
63.2,0.0168,0.4185,0.0105,1.2765
63.299,0.0168,0.4185,0.0105,1.2795
63.4,0.0168,0.417,0.0105,1.2795
63.5,0.0168,0.4155,0.0105,1.2795
63.6,0.0168,0.414,0.0105,1.281
63.7,0.0168,0.414,0.0105,1.2825
63.8,0.0168,0.4125,0.0105,1.284
63.9,0.0168,0.411,0.0105,1.2825
64.001,0.01685,0.4095,0.0105,1.2855
64.1,0.0168,0.4095,0.0105,1.2855
64.2,0.0168,0.408,0.0105,1.287
64.3,0.0168,0.4065,0.0105,1.2885
64.399,0.0168,0.4065,0.0105,1.29
64.5,0.0168,0.405,0.0105,1.29
64.6,0.0168,0.4035,0.0105,1.2915
64.701,0.0168,0.4035,0.0105,1.2915
64.801,0.0168,0.402,0.0105,1.293
64.9,0.0168,0.4005,0.0105,1.2945
65,0.0168,0.399,0.0105,1.296
65.1,0.0168,0.399,0.0105,1.296
65.201,0.0168,0.3975,0.0105,1.296
65.299,0.0168,0.396,0.0105,1.2975
65.4,0.0168,0.396,0.0105,1.299
65.5,0.01685,0.3945,0.0105,1.299
65.6,0.0168,0.393,0.0105,1.3005
65.7,0.0168,0.393,0.0105,1.302
65.801,0.0168,0.3915,0.0105,1.3005
65.9,0.0168,0.39,0.0105,1.3035
66,0.0168,0.39,0.0105,1.305
66.099,0.0168,0.3885,0.009,1.3065
66.199,0.0168,0.387,0.0105,1.3065
66.3,0.0168,0.3855,0.0105,1.308
66.399,0.0168,0.3855,0.009,1.308
66.5,0.0168,0.384,0.009,1.3095
66.6,0.0168,0.3825,0.009,1.3095
66.699,0.0168,0.3825,0.009,1.311
66.799,0.0168,0.381,0.009,1.3125
66.9,0.0168,0.3795,0.009,1.3125
66.999,0.0168,0.3795,0.009,1.3155
67.1,0.0168,0.378,0.009,1.3155
67.2,0.0168,0.3765,0.009,1.3155
67.3,0.0168,0.3765,0.009,1.317
67.4,0.0168,0.375,0.009,1.3185
67.5,0.0168,0.3735,0.009,1.32
67.6,0.0168,0.3735,0.009,1.32
67.7,0.0168,0.372,0.009,1.3215
67.8,0.0168,0.372,0.009,1.3215
67.9,0.0168,0.3705,0.009,1.323
68,0.0168,0.369,0.009,1.323
68.1,0.0168,0.369,0.009,1.3245
68.2,0.0168,0.3675,0.009,1.326
68.3,0.0168,0.366,0.009,1.326
68.399,0.01665,0.366,0.009,1.329
68.5,0.0168,0.3645,0.009,1.329
68.6,0.0168,0.363,0.009,1.329
68.699,0.0168,0.363,0.009,1.3305
68.8,0.0168,0.3615,0.009,1.332
68.9,0.0168,0.3615,0.009,1.332
69,0.0168,0.36,0.009,1.332
69.1,0.0168,0.3585,0.009,1.3335
69.199,0.0168,0.3585,0.009,1.335
69.299,0.0168,0.357,0.009,1.3365
69.4,0.0168,0.3555,0.009,1.3365
69.5,0.0168,0.3555,0.009,1.338
69.601,0.0168,0.354,0.009,1.338
69.7,0.0168,0.354,0.009,1.341
69.799,0.01675,0.3525,0.009,1.341
69.899,0.01675,0.351,0.009,1.3425
70,0.0167,0.351,0.009,1.3425
70.1,0.0167,0.3495,0.009,1.344
70.2,0.01665,0.3495,0.009,1.3455
70.3,0.01665,0.348,0.009,1.3455
70.4,0.0168,0.3465,0.009,1.3455
70.5,0.01665,0.3465,0.0075,1.347
70.6,0.0168,0.345,0.009,1.347
70.7,0.0166,0.345,0.009,1.3485
70.8,0.01665,0.3435,0.009,1.35
70.9,0.01665,0.3435,0.009,1.35
71,0.0166,0.342,0.009,1.3515
71.1,0.01665,0.342,0.0075,1.353
71.2,0.0168,0.3405,0.009,1.353
71.3,0.01665,0.339,0.0075,1.3545
71.4,0.01675,0.339,0.0075,1.3545
71.502,0.0168,0.3375,0.0075,1.3545
71.6,0.01665,0.3375,0.0075,1.3575
71.7,0.01665,0.336,0.0075,1.359
71.8,0.01665,0.336,0.0075,1.359
71.9,0.0167,0.3345,0.0075,1.3605
71.999,0.0167,0.3345,0.009,1.3605
72.1,0.0167,0.333,0.0075,1.362
72.2,0.01665,0.333,0.0075,1.362
72.3,0.0167,0.3315,0.0075,1.3635
72.399,0.01685,0.3315,0.0075,1.365
72.5,0.0167,0.33,0.0075,1.365
72.6,0.01665,0.3285,0.0075,1.3665
72.7,0.01675,0.3285,0.0075,1.368
72.8,0.01675,0.327,0.0075,1.368
72.9,0.01675,0.327,0.0075,1.3695
73,0.01665,0.3255,0.0075,1.3695
73.1,0.01675,0.3255,0.0075,1.371
73.2,0.01665,0.324,0.0075,1.371
73.3,0.01675,0.324,0.0075,1.3725
73.4,0.01675,0.3225,0.0075,1.374
73.5,0.01675,0.3225,0.0075,1.374
73.6,0.0168,0.321,0.0075,1.3755
73.7,0.0167,0.321,0.0075,1.3755
73.8,0.0168,0.3195,0.0075,1.377
73.9,0.0168,0.3195,0.0075,1.3785
73.999,0.0168,0.318,0.0075,1.3785
74.1,0.0167,0.318,0.0075,1.38
74.199,0.01685,0.3165,0.0075,1.38
74.3,0.0168,0.3165,0.0075,1.3815
74.4,0.0168,0.315,0.0075,1.3815
74.5,0.0167,0.315,0.0075,1.383
74.6,0.0167,0.3135,0.0075,1.3845
74.7,0.0168,0.3135,0.0075,1.3845
74.799,0.01685,0.312,0.0075,1.386
74.9,0.01685,0.312,0.0075,1.386
75.002,0.01665,0.3105,0.0075,1.3875
75.1,0.01685,0.3105,0.0075,1.3875
75.201,0.01675,0.309,0.0075,1.389
75.3,0.01685,0.309,0.0075,1.3905
75.4,0.0168,0.3075,0.0075,1.3905
75.5,0.0168,0.3075,0.0075,1.392
75.6,0.01685,0.306,0.0075,1.392
75.7,0.01685,0.306,0.0075,1.3935
75.799,0.0169,0.3045,0.0075,1.3935
75.899,0.01685,0.3045,0.0075,1.395
76,0.01685,0.303,0.006,1.395
76.099,0.0169,0.303,0.006,1.3965
76.2,0.01685,0.3015,0.0075,1.398
76.3,0.01685,0.3015,0.0075,1.398
76.401,0.01685,0.3,0.0075,1.3995
76.5,0.01685,0.3,0.006,1.3995
76.599,0.0169,0.2985,0.0075,1.401
76.7,0.01685,0.2985,0.0075,1.401
76.799,0.0169,0.2985,0.006,1.4025
76.899,0.0169,0.297,0.0075,1.404
77,0.0168,0.2955,0.006,1.404
77.099,0.0169,0.2955,0.006,1.4055
77.199,0.0169,0.2955,0.006,1.4055
77.3,0.0169,0.294,0.006,1.407
77.399,0.01685,0.294,0.006,1.407
77.499,0.0169,0.2925,0.006,1.4085
77.6,0.0169,0.2925,0.006,1.41
77.7,0.0169,0.291,0.006,1.41
77.799,0.0169,0.291,0.006,1.4115
77.9,0.0169,0.291,0.006,1.4115
78,0.01695,0.2895,0.006,1.413
78.1,0.0169,0.2895,0.006,1.413
78.2,0.0169,0.288,0.006,1.4145
78.301,0.01685,0.288,0.006,1.416
78.4,0.01685,0.288,0.006,1.416
78.499,0.01695,0.2865,0.006,1.4175
78.6,0.0169,0.2865,0.006,1.4175
78.7,0.01695,0.285,0.006,1.419
78.8,0.01695,0.285,0.006,1.419
78.9,0.01695,0.2835,0.006,1.4205
79,0.0169,0.2835,0.006,1.4205
79.099,0.0169,0.282,0.006,1.422
79.2,0.01695,0.282,0.006,1.4235
79.3,0.0169,0.282,0.006,1.4235
79.4,0.0169,0.2805,0.006,1.425
79.5,0.01695,0.2805,0.006,1.425
79.6,0.0169,0.279,0.006,1.4265
79.7,0.0169,0.279,0.006,1.4265
79.8,0.0169,0.2775,0.006,1.428
79.9,0.0169,0.2775,0.006,1.4295
79.999,0.0169,0.2775,0.006,1.4295
80.099,0.0169,0.276,0.006,1.431
80.2,0.0169,0.276,0.006,1.431
80.301,0.0169,0.2745,0.006,1.4325
80.4,0.01695,0.2745,0.006,1.4325
80.5,0.0169,0.2745,0.006,1.434
80.6,0.01685,0.273,0.006,1.4355
80.7,0.0169,0.273,0.006,1.4355
80.801,0.0169,0.2715,0.006,1.437
80.9,0.01685,0.2715,0.006,1.437
80.999,0.0168,0.27,0.006,1.437
81.1,0.0169,0.27,0.006,1.4385
81.2,0.01685,0.27,0.006,1.44
81.3,0.01685,0.2685,0.006,1.44
81.399,0.01685,0.2685,0.006,1.44
81.499,0.01685,0.2685,0.006,1.4415
81.6,0.0168,0.267,0.006,1.443
81.7,0.01685,0.267,0.006,1.443
81.8,0.0168,0.2655,0.006,1.4445
81.899,0.01685,0.2655,0.006,1.4445
81.999,0.0168,0.264,0.006,1.446
82.1,0.0168,0.264,0.006,1.446
82.199,0.01685,0.264,0.006,1.4475
82.3,0.01685,0.264,0.006,1.449
82.4,0.0168,0.2625,0.006,1.449
82.5,0.0168,0.2625,0.006,1.4505
82.6,0.0168,0.261,0.006,1.4505
82.699,0.0168,0.261,0.006,1.452
82.8,0.01685,0.261,0.006,1.452
82.899,0.01685,0.2595,0.006,1.4535
83,0.0168,0.2595,0.006,1.4535
83.1,0.0168,0.258,0.006,1.455
83.201,0.0169,0.258,0.006,1.4565
83.3,0.0168,0.258,0.006,1.4565
83.4,0.0168,0.2565,0.006,1.4565
83.501,0.01685,0.2565,0.006,1.4595
83.6,0.0168,0.2565,0.006,1.4595
83.699,0.0168,0.255,0.006,1.458
83.799,0.0168,0.255,0.006,1.461
83.9,0.01685,0.255,0.006,1.4625
84,0.0168,0.2535,0.006,1.4625
84.1,0.0168,0.2535,0.006,1.4625
84.2,0.01685,0.252,0.006,1.464
84.301,0.01685,0.252,0.006,1.4655
84.4,0.01685,0.252,0.006,1.4655
84.5,0.0168,0.2505,0.006,1.467
84.6,0.0168,0.2505,0.006,1.4685
84.7,0.0168,0.2505,0.0045,1.467
84.8,0.01685,0.249,0.006,1.4685
84.9,0.01685,0.249,0.006,1.4685
85,0.0168,0.249,0.006,1.47
85.1,0.01685,0.2475,0.0045,1.4715
85.2,0.0168,0.2475,0.0045,1.4715
85.3,0.0168,0.246,0.006,1.473
85.4,0.0168,0.246,0.0045,1.4745
85.5,0.0168,0.246,0.0045,1.476
85.6,0.01685,0.2445,0.0045,1.4745
85.7,0.01685,0.2445,0.006,1.476
85.8,0.0168,0.2445,0.0045,1.4775
85.9,0.01685,0.243,0.0045,1.4775
86,0.0168,0.243,0.0045,1.479
86.1,0.0168,0.2415,0.0045,1.4805
86.2,0.0168,0.2415,0.0045,1.4805
86.301,0.01685,0.2415,0.006,1.482
86.401,0.01685,0.2415,0.0045,1.482
86.5,0.01685,0.24,0.0045,1.482
86.599,0.0168,0.24,0.006,1.4835
86.699,0.0168,0.24,0.0045,1.485
86.801,0.01685,0.2385,0.006,1.4865
86.9,0.0168,0.2385,0.006,1.4865
87,0.0168,0.2385,0.0045,1.488
87.1,0.0168,0.237,0.0045,1.488
87.2,0.0168,0.237,0.0045,1.488
87.3,0.0168,0.237,0.0045,1.4895
87.399,0.0168,0.237,0.0045,1.4895
87.499,0.01685,0.2355,0.0045,1.491
87.6,0.0168,0.2355,0.0045,1.491
87.7,0.0168,0.234,0.0045,1.4925
87.799,0.0168,0.234,0.0045,1.4925
87.9,0.01685,0.234,0.0045,1.494
88,0.0168,0.234,0.0045,1.494
88.1,0.0168,0.2325,0.0045,1.4955
88.2,0.01685,0.2325,0.0045,1.497
88.3,0.0168,0.231,0.0045,1.497
88.4,0.0168,0.231,0.0045,1.4985
88.5,0.0168,0.231,0.0045,1.4985
88.6,0.0168,0.231,0.0045,1.5
88.7,0.0168,0.2295,0.0045,1.5015
88.8,0.01685,0.2295,0.0045,1.5015
88.899,0.0168,0.2295,0.0045,1.503
88.999,0.0168,0.228,0.0045,1.503
89.1,0.0168,0.228,0.0045,1.503
89.2,0.01685,0.228,0.0045,1.506
89.3,0.0168,0.2265,0.0045,1.5045
89.4,0.01685,0.2265,0.0045,1.506
89.499,0.0168,0.2265,0.0045,1.5075
89.599,0.0168,0.2265,0.0045,1.5075
89.7,0.0168,0.225,0.0045,1.509
89.8,0.01685,0.225,0.0045,1.509
89.9,0.0168,0.2235,0.0045,1.5105
89.999,0.0168,0.2235,0.0045,1.5105
90.1,0.0168,0.2235,0.0045,1.512
90.2,0.0168,0.2235,0.0045,1.512
90.299,0.0168,0.222,0.0045,1.5135
90.401,0.0168,0.222,0.0045,1.515
90.5,0.0168,0.222,0.0045,1.515
90.6,0.0168,0.2205,0.0045,1.5165
90.699,0.01675,0.2205,0.0045,1.515
90.799,0.0168,0.2205,0.0045,1.518
90.9,0.01685,0.219,0.0045,1.518
90.999,0.0167,0.219,0.0045,1.518
91.1,0.0168,0.219,0.0045,1.521
91.2,0.0168,0.219,0.0045,1.521
91.3,0.0168,0.2175,0.0045,1.521
91.4,0.0168,0.2175,0.0045,1.5225
91.5,0.0168,0.2175,0.0045,1.524
91.6,0.0168,0.216,0.0045,1.524
91.7,0.0168,0.216,0.0045,1.5255
91.8,0.0168,0.216,0.0045,1.5255
91.901,0.01685,0.2145,0.0045,1.527
92,0.01685,0.2145,0.0045,1.527
92.099,0.01665,0.2145,0.0045,1.527
92.199,0.0168,0.2145,0.0045,1.5285
92.299,0.0168,0.213,0.0045,1.5285
92.4,0.0168,0.213,0.0045,1.53
92.5,0.01685,0.213,0.0045,1.5315
92.6,0.0168,0.2115,0.0045,1.5315
92.7,0.01685,0.2115,0.0045,1.533
92.801,0.0168,0.2115,0.0045,1.5345
92.9,0.0168,0.2115,0.0045,1.5345
93,0.0168,0.21,0.0045,1.5345
93.1,0.0168,0.21,0.0045,1.536
93.2,0.0168,0.21,0.0045,1.536
93.299,0.0168,0.21,0.0045,1.5375
93.4,0.0168,0.2085,0.0045,1.5375
93.5,0.0168,0.2085,0.0045,1.5375
93.599,0.0167,0.207,0.0045,1.539
93.7,0.0168,0.207,0.0045,1.5405
93.8,0.0168,0.207,0.0045,1.542
93.9,0.01675,0.207,0.0045,1.542
94,0.01675,0.2055,0.0045,1.542
94.101,0.01685,0.2055,0.0045,1.5435
94.2,0.01685,0.2055,0.0045,1.545
94.3,0.0167,0.2055,0.0045,1.545
94.399,0.01675,0.204,0.0045,1.545
94.5,0.0167,0.204,0.0045,1.5465
94.601,0.01685,0.204,0.0045,1.548
94.7,0.0168,0.204,0.0045,1.5495
94.799,0.01665,0.2025,0.0045,1.5495
94.9,0.0166,0.2025,0.0045,1.5495
95,0.01665,0.2025,0.0045,1.551
95.1,0.01665,0.201,0.0045,1.551
95.201,0.01685,0.201,0.0045,1.5525
95.3,0.0168,0.201,0.0045,1.554
95.4,0.01665,0.201,0.0045,1.554
95.5,0.01685,0.1995,0.0045,1.5555
95.6,0.01665,0.1995,0.0045,1.5555
95.699,0.01665,0.1995,0.0045,1.5555
95.799,0.01665,0.1995,0.0045,1.557
95.9,0.0168,0.198,0.0045,1.5585
96,0.0168,0.198,0.0045,1.5585
96.1,0.01665,0.198,0.0045,1.56
96.2,0.01685,0.198,0.0045,1.56
96.3,0.01665,0.1965,0.0045,1.56
96.4,0.01665,0.1965,0.0045,1.5615
96.5,0.0167,0.1965,0.0045,1.563
96.6,0.01665,0.195,0.0045,1.563
96.701,0.0168,0.195,0.0045,1.5645
96.8,0.0168,0.195,0.0045,1.566
96.9,0.0167,0.195,0.0045,1.566
97,0.01665,0.195,0.0045,1.566
97.1,0.01665,0.1935,0.0045,1.5675
97.199,0.0168,0.1935,0.0045,1.5675
97.3,0.01665,0.1935,0.0045,1.569
97.399,0.01675,0.192,0.0045,1.569
97.499,0.0167,0.192,0.0045,1.5705
97.599,0.0167,0.192,0.0045,1.5705
97.7,0.0167,0.192,0.0045,1.572
97.799,0.0168,0.192,0.0045,1.572
97.9,0.0167,0.192,0.0045,1.5735
98,0.0167,0.1905,0.0045,1.575
98.1,0.0168,0.1905,0.0045,1.5765
98.2,0.0167,0.1905,0.0045,1.5765
98.3,0.0167,0.189,0.0045,1.578
98.399,0.01675,0.189,0.003,1.578
98.5,0.0167,0.189,0.0045,1.578
98.6,0.0167,0.189,0.0045,1.5795
98.699,0.0167,0.1875,0.0045,1.5795
98.799,0.0167,0.1875,0.0045,1.581
98.9,0.0167,0.1875,0.0045,1.581
99,0.0168,0.1875,0.003,1.584
99.099,0.0167,0.1875,0.003,1.5825
99.2,0.01675,0.186,0.0045,1.584
99.299,0.01685,0.186,0.0045,1.584
99.4,0.01675,0.186,0.0045,1.5855
99.5,0.01675,0.186,0.0045,1.5855
99.599,0.01685,0.1845,0.0045,1.587
99.7,0.01675,0.1845,0.0045,1.587
99.801,0.01665,0.1845,0.003,1.5885
99.9,0.01675,0.1845,0.003,1.5885
100.001,0.01665,0.183,0.0045,1.59
100.1,0.01675,0.183,0.003,1.59
100.2,0.01675,0.183,0.003,1.5915
100.301,0.01665,0.183,0.003,1.593
100.4,0.01675,0.183,0.003,1.593
100.5,0.01675,0.183,0.003,1.593
100.601,0.01665,0.1815,0.0045,1.5945
100.7,0.0168,0.1815,0.003,1.5945
100.801,0.0167,0.1815,0.003,1.596
100.901,0.0167,0.1815,0.003,1.5975
101,0.0168,0.18,0.0045,1.5975
101.1,0.0168,0.18,0.003,1.599
101.2,0.0168,0.18,0.003,1.599
101.3,0.0168,0.18,0.0045,1.6005
101.4,0.01685,0.1785,0.0045,1.6005
101.5,0.0168,0.1785,0.003,1.602
101.599,0.0168,0.1785,0.003,1.602
101.7,0.0168,0.1785,0.003,1.6035
101.799,0.01685,0.1785,0.003,1.6035
101.9,0.01685,0.177,0.0045,1.605
102,0.0168,0.177,0.003,1.6065
102.1,0.0168,0.177,0.003,1.6065
102.2,0.01675,0.177,0.003,1.608
102.3,0.01675,0.1755,0.003,1.608
102.399,0.01685,0.1755,0.003,1.6095
102.5,0.0168,0.1755,0.003,1.6095
102.6,0.0167,0.1755,0.003,1.611
102.7,0.01685,0.1755,0.003,1.611
102.799,0.0168,0.174,0.003,1.6125
102.899,0.0168,0.174,0.003,1.6125
103,0.01675,0.174,0.003,1.614
103.1,0.0168,0.174,0.003,1.614
103.199,0.01685,0.174,0.003,1.6155
103.299,0.01685,0.1725,0.003,1.617
103.4,0.01685,0.1725,0.003,1.617
103.499,0.01685,0.1725,0.003,1.6185
103.6,0.01685,0.1725,0.003,1.6185
103.7,0.01685,0.171,0.003,1.62
103.801,0.0168,0.171,0.003,1.62
103.9,0.01685,0.171,0.003,1.6215
104,0.01675,0.171,0.003,1.6215
104.101,0.01675,0.171,0.003,1.623
104.2,0.01685,0.1695,0.003,1.623
104.3,0.01685,0.1695,0.003,1.6245
104.4,0.0168,0.1695,0.003,1.626
104.5,0.01685,0.1695,0.003,1.626
104.599,0.0169,0.1695,0.003,1.6275
104.7,0.0168,0.1695,0.003,1.6275
104.8,0.01685,0.168,0.003,1.629
104.9,0.0168,0.168,0.003,1.629
105,0.01685,0.168,0.003,1.6305
105.1,0.01685,0.168,0.003,1.6305
105.2,0.0168,0.168,0.003,1.632
105.299,0.01685,0.1665,0.003,1.632
105.4,0.0168,0.1665,0.003,1.632
105.499,0.01685,0.1665,0.003,1.632
105.6,0.01685,0.1665,0.003,1.632
105.699,0.01695,0.165,0.003,1.632
105.8,0.01685,0.165,0.003,1.632
105.899,0.01685,0.165,0.003,1.632
106,0.01685,0.165,0.003,1.632
106.101,0.0168,0.165,0.003,1.632
106.199,0.01685,0.165,0.003,1.632
106.3,0.01685,0.165,0.003,1.632
106.4,0.01685,0.165,0.003,1.632
106.5,0.0169,0.165,0.003,1.632
106.6,0.0169,0.165,0.003,1.632
106.7,0.01685,0.165,0.003,1.632
106.8,0.01685,0.1635,0.003,1.6305
106.9,0.0169,0.1635,0.003,1.6305
107,0.01685,0.1635,0.003,1.6305
107.1,0.01685,0.1635,0.003,1.6305
107.199,0.01685,0.1635,0.003,1.6305
107.299,0.0169,0.1635,0.003,1.6305
107.4,0.01685,0.1635,0.003,1.629
107.5,0.01685,0.1635,0.003,1.629
107.601,0.0168,0.1635,0.003,1.629
107.7,0.0169,0.1635,0.003,1.629
107.8,0.0169,0.1635,0.003,1.6275
107.901,0.01675,0.1635,0.003,1.6275
108,0.0169,0.165,0.003,1.6275
108.1,0.0169,0.1635,0.003,1.626
108.2,0.01685,0.1635,0.003,1.626
108.3,0.01685,0.1635,0.003,1.626
108.4,0.0169,0.1635,0.003,1.6245
108.5,0.0169,0.1635,0.003,1.6245
108.6,0.01685,0.165,0.003,1.6245
108.7,0.01685,0.165,0.003,1.623
108.8,0.0169,0.165,0.003,1.623
108.9,0.0169,0.165,0.003,1.623
108.999,0.0169,0.165,0.003,1.6215
109.099,0.0169,0.165,0.003,1.6215
109.2,0.0169,0.165,0.003,1.6215
109.3,0.01685,0.165,0.003,1.62
109.4,0.01685,0.165,0.003,1.62
109.5,0.01695,0.165,0.003,1.62
109.6,0.0169,0.1665,0.003,1.6185
109.7,0.01685,0.1665,0.003,1.6185
109.8,0.01695,0.1665,0.003,1.617
109.899,0.0169,0.1665,0.003,1.617
110,0.01695,0.1665,0.003,1.617
110.1,0.0169,0.1665,0.003,1.6155
110.2,0.0169,0.1665,0.003,1.6155
110.299,0.0169,0.1665,0.003,1.614
110.399,0.0169,0.1665,0.003,1.614
110.5,0.01685,0.168,0.003,1.614
110.6,0.01685,0.168,0.003,1.6125
110.7,0.01695,0.168,0.003,1.6125
110.8,0.0169,0.168,0.003,1.6125
110.9,0.0169,0.168,0.003,1.611
110.999,0.01695,0.168,0.003,1.611
111.1,0.01695,0.168,0.003,1.6095
111.2,0.01685,0.168,0.003,1.6095
111.3,0.01695,0.168,0.003,1.6095
111.4,0.01695,0.1695,0.003,1.608
111.5,0.01695,0.1695,0.003,1.608
111.599,0.0169,0.1695,0.003,1.6065
111.699,0.0169,0.1695,0.003,1.6065
111.8,0.01695,0.1695,0.003,1.605
111.9,0.0169,0.1695,0.003,1.605
112.001,0.0169,0.1695,0.003,1.605
112.099,0.01685,0.171,0.003,1.6035
112.199,0.01695,0.171,0.003,1.6035
112.3,0.01695,0.171,0.003,1.6035
112.399,0.01685,0.171,0.003,1.602
112.5,0.0169,0.171,0.003,1.602
112.6,0.0169,0.171,0.003,1.6005
112.7,0.0169,0.171,0.003,1.6005
112.8,0.0169,0.171,0.003,1.599
112.899,0.01695,0.1725,0.003,1.599
113,0.01695,0.1725,0.003,1.5975
113.1,0.0169,0.1725,0.003,1.5975
113.199,0.0169,0.1725,0.003,1.5975
113.3,0.0169,0.1725,0.003,1.596
113.4,0.0169,0.174,0.003,1.596
113.499,0.01695,0.174,0.003,1.5945
113.6,0.0169,0.174,0.003,1.5945
113.701,0.0169,0.174,0.003,1.5945
113.8,0.01695,0.174,0.0045,1.593
113.9,0.0169,0.174,0.003,1.593
114,0.0169,0.1755,0.003,1.5915
114.1,0.0169,0.1755,0.003,1.5915
114.2,0.0169,0.1755,0.003,1.5915
114.299,0.0169,0.1755,0.003,1.59
114.401,0.0169,0.1755,0.003,1.59
114.5,0.0169,0.1755,0.003,1.5885
114.6,0.0169,0.177,0.0045,1.5885
114.7,0.0169,0.177,0.0045,1.587
114.8,0.0169,0.177,0.0045,1.587
114.9,0.0169,0.177,0.0045,1.587
115,0.0169,0.177,0.0045,1.5855
115.099,0.0168,0.177,0.003,1.5855
115.2,0.0169,0.1785,0.003,1.584
115.299,0.0169,0.1785,0.0045,1.584
115.4,0.0169,0.1785,0.003,1.584
115.5,0.0169,0.1785,0.0045,1.5825
115.6,0.01685,0.1785,0.003,1.5825
115.7,0.0169,0.1785,0.003,1.5825
115.799,0.0168,0.18,0.0045,1.5825
115.9,0.01685,0.18,0.003,1.581
116,0.01685,0.18,0.003,1.5795
116.1,0.0169,0.18,0.003,1.5795
116.199,0.0168,0.18,0.0045,1.5795
116.3,0.01685,0.1815,0.0045,1.578
116.4,0.01695,0.1815,0.003,1.578
116.5,0.0169,0.1815,0.003,1.5765
116.6,0.01685,0.1815,0.003,1.5765
116.7,0.01685,0.1815,0.003,1.575
116.799,0.01685,0.1815,0.003,1.575
116.9,0.01685,0.183,0.003,1.575
117,0.01685,0.183,0.0045,1.5735
117.101,0.0169,0.183,0.0045,1.5735
117.2,0.0169,0.183,0.003,1.572
117.3,0.0168,0.183,0.0045,1.572
117.399,0.01685,0.183,0.0045,1.572
117.5,0.0168,0.1845,0.0045,1.5705
117.6,0.0168,0.1845,0.0045,1.5705
117.7,0.01685,0.1845,0.0045,1.569
117.8,0.0168,0.1845,0.0045,1.569
117.9,0.01685,0.1845,0.0045,1.569
118,0.01695,0.186,0.0045,1.5675
118.1,0.0169,0.186,0.0045,1.566
118.199,0.01685,0.186,0.0045,1.566
118.3,0.0168,0.186,0.0045,1.566
118.399,0.0168,0.186,0.0045,1.5645
118.5,0.01695,0.1875,0.0045,1.5645
118.6,0.01685,0.1875,0.0045,1.5645
118.699,0.0168,0.1875,0.0045,1.5645
118.8,0.01685,0.1875,0.0045,1.563
118.899,0.0168,0.1875,0.0045,1.563
118.999,0.0168,0.1875,0.0045,1.5615
119.1,0.0168,0.189,0.0045,1.56
119.199,0.0168,0.189,0.0045,1.56
119.299,0.0168,0.189,0.0045,1.56
119.4,0.0169,0.189,0.0045,1.5585
119.5,0.0168,0.189,0.0045,1.5585
119.6,0.01685,0.1905,0.0045,1.557
119.7,0.0168,0.1905,0.0045,1.557
119.801,0.0169,0.1905,0.0045,1.5555
119.9,0.0169,0.1905,0.0045,1.5555
119.999,0.01685,0.1905,0.0045,1.5555
120.1,0.0168,0.192,0.0045,1.554
120.201,0.0169,0.192,0.0045,1.554
120.3,0.0168,0.192,0.0045,1.554
120.401,0.0169,0.192,0.0045,1.5525
120.5,0.0168,0.192,0.0045,1.5525
120.6,0.0169,0.192,0.0045,1.551
120.7,0.0168,0.1935,0.0045,1.551
120.8,0.0169,0.1935,0.0045,1.5495
120.9,0.0168,0.1935,0.0045,1.5495
121,0.0169,0.1935,0.0045,1.548
121.1,0.0168,0.1935,0.0045,1.548
121.2,0.0168,0.195,0.0045,1.548
121.299,0.01685,0.195,0.0045,1.5465
121.4,0.0168,0.195,0.0045,1.5465
121.499,0.0168,0.195,0.0045,1.5465
121.6,0.01685,0.195,0.0045,1.545
121.7,0.0168,0.195,0.0045,1.545
121.8,0.0168,0.1965,0.0045,1.5435
121.9,0.01685,0.1965,0.0045,1.542
122,0.01685,0.1965,0.0045,1.542
122.1,0.0168,0.1965,0.0045,1.542
122.2,0.0168,0.1965,0.0045,1.542
122.3,0.01685,0.198,0.0045,1.5405
122.4,0.0168,0.198,0.0045,1.5405
122.499,0.0168,0.198,0.0045,1.5405
122.599,0.0168,0.198,0.0045,1.5405
122.7,0.0168,0.198,0.0045,1.539
122.799,0.0168,0.1995,0.0045,1.5375
122.899,0.0168,0.1995,0.0045,1.5375
123,0.01685,0.1995,0.0045,1.536
123.1,0.01685,0.1995,0.0045,1.536
123.2,0.0168,0.201,0.0045,1.536
123.3,0.0168,0.201,0.0045,1.536
123.399,0.0168,0.201,0.0045,1.5345
123.501,0.0168,0.201,0.0045,1.533
123.599,0.0168,0.201,0.0045,1.533
123.7,0.0168,0.2025,0.0045,1.533
123.8,0.0168,0.2025,0.0045,1.5315
123.901,0.01685,0.2025,0.0045,1.53
124,0.0168,0.2025,0.0045,1.5315
124.1,0.01685,0.2025,0.0045,1.53
124.2,0.0168,0.204,0.0045,1.53
124.3,0.0168,0.204,0.0045,1.53
124.4,0.0168,0.204,0.0045,1.5285
124.501,0.0168,0.204,0.0045,1.527
124.6,0.0168,0.2055,0.0045,1.527
124.699,0.0168,0.2055,0.0045,1.527
124.8,0.0168,0.2055,0.0045,1.5255
124.899,0.0168,0.2055,0.0045,1.5255
125,0.0168,0.2055,0.0045,1.5255
125.099,0.0168,0.207,0.0045,1.524
125.2,0.01685,0.207,0.0045,1.5225
125.301,0.01685,0.207,0.0045,1.5225
125.4,0.0168,0.207,0.0045,1.521
125.499,0.0168,0.2085,0.0045,1.5225
125.6,0.0169,0.2085,0.0045,1.5195
125.7,0.0168,0.2085,0.0045,1.521
125.8,0.0168,0.2085,0.0045,1.5195
125.899,0.0168,0.21,0.0045,1.5195
126,0.0168,0.21,0.0045,1.518
126.1,0.01685,0.21,0.0045,1.518
126.2,0.0169,0.21,0.0045,1.5165
126.299,0.0168,0.21,0.0045,1.5165
126.4,0.0168,0.21,0.0045,1.5165
126.499,0.01685,0.2115,0.0045,1.5165
126.6,0.0168,0.2115,0.0045,1.5135
126.7,0.0168,0.2115,0.0045,1.515
126.8,0.0168,0.2115,0.0045,1.5135
126.899,0.0168,0.213,0.0045,1.512
127,0.0168,0.213,0.0045,1.512
127.1,0.0168,0.213,0.0045,1.512
127.199,0.0168,0.213,0.0045,1.512
127.299,0.0168,0.213,0.0045,1.5105
127.399,0.0168,0.2145,0.0045,1.5105
127.5,0.01685,0.2145,0.0045,1.509
127.6,0.0168,0.2145,0.0045,1.509
127.7,0.01685,0.2145,0.0045,1.509
127.8,0.0168,0.2145,0.0045,1.5075
127.899,0.0168,0.216,0.0045,1.5075
128,0.0168,0.216,0.0045,1.506
128.099,0.0168,0.216,0.0045,1.506
128.199,0.0168,0.216,0.0045,1.506
128.299,0.0168,0.2175,0.0045,1.5045
128.4,0.0168,0.2175,0.0045,1.503
128.499,0.0168,0.2175,0.0045,1.503
128.6,0.0168,0.2175,0.0045,1.5015
128.7,0.0168,0.219,0.0045,1.5015
128.8,0.0168,0.219,0.0045,1.5015
128.899,0.0168,0.219,0.0045,1.5015
129.002,0.0169,0.219,0.0045,1.4985
129.1,0.0168,0.219,0.0045,1.5
129.2,0.0168,0.2205,0.0045,1.4985
129.299,0.0168,0.2205,0.0045,1.4985
129.401,0.0168,0.2205,0.0045,1.497
129.499,0.0168,0.222,0.0045,1.497
129.599,0.0168,0.222,0.0045,1.4955
129.7,0.0168,0.222,0.0045,1.4955
129.8,0.01685,0.222,0.0045,1.4955
129.9,0.0168,0.222,0.0045,1.4955
130.001,0.0168,0.2235,0.0045,1.494
130.1,0.01685,0.2235,0.0045,1.4925
130.2,0.0168,0.2235,0.0045,1.4925
130.299,0.0168,0.2235,0.0045,1.4925
130.4,0.0168,0.2235,0.0045,1.491
130.5,0.0168,0.225,0.0045,1.491
130.599,0.0168,0.225,0.0045,1.491
130.7,0.0168,0.225,0.0045,1.4895
130.799,0.01685,0.225,0.0045,1.4895
130.899,0.0168,0.2265,0.0045,1.4895
130.999,0.0168,0.2265,0.0045,1.488
131.1,0.01685,0.2265,0.0045,1.488
131.199,0.0168,0.228,0.0045,1.488
131.3,0.0168,0.228,0.0045,1.4865
131.4,0.0168,0.228,0.0045,1.4865
131.5,0.0168,0.228,0.0045,1.485
131.6,0.0168,0.228,0.0045,1.485
131.699,0.01685,0.228,0.0045,1.485
131.8,0.0168,0.2295,0.006,1.4835
131.9,0.0168,0.2295,0.0045,1.4835
132,0.0168,0.2295,0.0045,1.482
132.1,0.0168,0.231,0.0045,1.4805
132.2,0.0168,0.231,0.006,1.482
132.3,0.0168,0.231,0.0045,1.4805
132.399,0.0168,0.231,0.0045,1.4805
132.5,0.0168,0.231,0.006,1.479
132.6,0.0168,0.2325,0.0045,1.479
132.7,0.0168,0.2325,0.006,1.4775
132.8,0.0168,0.2325,0.006,1.4775
132.9,0.01685,0.2325,0.006,1.4775
133,0.0168,0.234,0.0045,1.476
133.099,0.0168,0.234,0.0045,1.476
133.199,0.0168,0.234,0.006,1.476
133.3,0.01685,0.234,0.006,1.4745
133.4,0.0168,0.2355,0.006,1.4745
133.5,0.0168,0.2355,0.006,1.473
133.6,0.01685,0.2355,0.0045,1.473
133.7,0.0168,0.2355,0.006,1.473
133.8,0.01685,0.237,0.006,1.4715
133.9,0.0168,0.237,0.0045,1.4715
134,0.0168,0.237,0.0045,1.4715
134.101,0.0168,0.237,0.006,1.47
134.2,0.01685,0.2385,0.006,1.4685
134.3,0.0168,0.2385,0.006,1.4685
134.399,0.0168,0.2385,0.006,1.4685
134.5,0.01685,0.2385,0.006,1.467
134.6,0.0168,0.24,0.0045,1.467
134.699,0.0168,0.24,0.0045,1.467
134.8,0.0168,0.24,0.0045,1.4655
134.9,0.0168,0.24,0.0045,1.4655
135,0.0168,0.24,0.006,1.4655
135.1,0.01685,0.2415,0.006,1.464
135.2,0.01685,0.2415,0.006,1.464
135.299,0.01665,0.2415,0.006,1.464
135.4,0.0168,0.2415,0.006,1.4625
135.499,0.01685,0.243,0.006,1.4625
135.599,0.01665,0.243,0.006,1.4625
135.7,0.0168,0.243,0.006,1.461
135.8,0.0168,0.243,0.006,1.461
135.899,0.01665,0.2445,0.0045,1.461
136,0.0168,0.2445,0.006,1.4595
136.1,0.0168,0.2445,0.006,1.458
136.2,0.0168,0.2445,0.006,1.458
136.3,0.0168,0.2445,0.006,1.4565
136.399,0.01665,0.246,0.006,1.458
136.499,0.0168,0.246,0.006,1.4565
136.6,0.0168,0.246,0.006,1.455
136.699,0.0168,0.2475,0.006,1.455
136.8,0.0168,0.2475,0.006,1.4535
136.9,0.0168,0.2475,0.006,1.455
137,0.0168,0.2475,0.006,1.4535
137.099,0.01675,0.249,0.006,1.4535
137.2,0.0168,0.249,0.006,1.452
137.3,0.01675,0.249,0.006,1.452
137.4,0.0167,0.249,0.006,1.452
137.5,0.0167,0.2505,0.006,1.4505
137.6,0.0168,0.2505,0.006,1.449
137.699,0.0167,0.2505,0.006,1.449
137.8,0.0168,0.2505,0.006,1.449
137.9,0.0168,0.252,0.006,1.4475
138,0.01665,0.252,0.006,1.4475
138.1,0.0167,0.252,0.006,1.4475
138.2,0.0166,0.2535,0.006,1.446
138.3,0.01665,0.2535,0.006,1.446
138.399,0.0167,0.2535,0.006,1.446
138.5,0.01665,0.2535,0.006,1.4445
138.6,0.01665,0.255,0.006,1.4445
138.699,0.01675,0.255,0.006,1.4445
138.799,0.01665,0.255,0.006,1.443
138.9,0.01665,0.255,0.006,1.443
138.999,0.01675,0.255,0.006,1.443
139.099,0.01675,0.2565,0.006,1.443
139.2,0.01665,0.2565,0.006,1.4415
139.299,0.01665,0.2565,0.006,1.4415
139.4,0.01665,0.258,0.006,1.44
139.5,0.0168,0.258,0.006,1.44
139.6,0.0167,0.258,0.006,1.4385
139.7,0.01665,0.258,0.006,1.4385
139.799,0.01665,0.2595,0.006,1.4385
139.9,0.01665,0.2595,0.006,1.437
140,0.01665,0.2595,0.006,1.437
140.1,0.01665,0.2595,0.006,1.437
140.2,0.0167,0.261,0.006,1.4355
140.3,0.01665,0.261,0.006,1.4355
140.4,0.01665,0.261,0.006,1.434
140.499,0.0167,0.2625,0.006,1.434
140.6,0.01675,0.2625,0.006,1.4325
140.7,0.0167,0.2625,0.006,1.4325
140.8,0.0167,0.2625,0.006,1.4325
140.899,0.0168,0.264,0.006,1.4325
141,0.0167,0.264,0.006,1.431
141.099,0.0168,0.264,0.006,1.431
141.199,0.0168,0.264,0.006,1.4295
141.3,0.0167,0.2655,0.006,1.4295
141.4,0.01665,0.2655,0.006,1.428
141.5,0.0167,0.2655,0.006,1.428
141.599,0.0167,0.267,0.006,1.428
141.7,0.0167,0.267,0.006,1.4265
141.8,0.0167,0.267,0.006,1.4265
141.899,0.0168,0.267,0.006,1.425
142,0.0167,0.2685,0.006,1.425
142.1,0.01675,0.2685,0.006,1.425
142.199,0.01685,0.2685,0.006,1.4235
142.299,0.01675,0.27,0.006,1.4235
142.399,0.01675,0.27,0.006,1.4235
142.5,0.01665,0.27,0.006,1.422
142.599,0.01685,0.27,0.006,1.422
142.7,0.01675,0.27,0.006,1.422
142.8,0.0166,0.2715,0.006,1.4205
142.9,0.01675,0.2715,0.006,1.4205
143,0.01675,0.273,0.006,1.419
143.1,0.01675,0.273,0.006,1.419
143.2,0.01675,0.273,0.006,1.419
143.3,0.01675,0.273,0.006,1.4175
143.401,0.0166,0.2745,0.006,1.416
143.5,0.01675,0.2745,0.006,1.4175
143.599,0.01685,0.2745,0.006,1.416
143.699,0.01675,0.2745,0.006,1.416
143.8,0.01665,0.276,0.006,1.4145
143.9,0.01675,0.276,0.006,1.4145
143.999,0.0168,0.276,0.006,1.4145
144.1,0.01665,0.276,0.006,1.413
144.2,0.01665,0.2775,0.006,1.413
144.299,0.01675,0.2775,0.006,1.4115
144.399,0.01675,0.2775,0.006,1.4115
144.5,0.01665,0.279,0.006,1.41
144.6,0.0168,0.279,0.006,1.41
144.7,0.01675,0.279,0.006,1.41
144.8,0.01675,0.279,0.006,1.41
144.9,0.01665,0.2805,0.006,1.4085
144.999,0.01675,0.2805,0.006,1.4085
145.1,0.01665,0.2805,0.006,1.407
145.2,0.01665,0.282,0.006,1.407
145.3,0.0168,0.282,0.006,1.407
145.4,0.0168,0.282,0.006,1.4055
145.499,0.0168,0.2835,0.006,1.4055
145.599,0.01685,0.2835,0.006,1.404
145.7,0.01675,0.2835,0.006,1.404
145.8,0.0168,0.2835,0.006,1.404
145.9,0.0168,0.285,0.006,1.4025
146,0.0168,0.285,0.006,1.4025
146.1,0.01665,0.285,0.006,1.401
146.2,0.0168,0.285,0.006,1.401
146.3,0.0168,0.2865,0.006,1.401
146.399,0.01685,0.2865,0.006,1.3995
146.5,0.01675,0.2865,0.006,1.3995
146.6,0.0168,0.288,0.006,1.3995
146.699,0.0168,0.288,0.006,1.398
146.8,0.0168,0.288,0.006,1.398
146.9,0.0167,0.288,0.006,1.3965
146.999,0.0168,0.2895,0.006,1.3965
147.1,0.0168,0.2895,0.006,1.3965
147.2,0.0168,0.2895,0.006,1.395
147.299,0.0168,0.2895,0.006,1.395
147.4,0.0168,0.291,0.006,1.395
147.5,0.0168,0.291,0.006,1.395
147.6,0.01665,0.291,0.006,1.3935
147.7,0.0167,0.2925,0.006,1.3935
147.799,0.0168,0.2925,0.006,1.392
147.9,0.0168,0.2925,0.006,1.392
147.999,0.01685,0.294,0.006,1.3905
148.099,0.0168,0.294,0.006,1.3905
148.2,0.01675,0.294,0.006,1.3905
148.299,0.0168,0.294,0.006,1.389
148.4,0.0168,0.2955,0.006,1.389
148.5,0.0168,0.2955,0.006,1.389
148.599,0.01685,0.2955,0.006,1.3875
148.7,0.0168,0.297,0.006,1.3875
148.799,0.01685,0.297,0.006,1.386
148.9,0.0168,0.297,0.006,1.386
149.001,0.0167,0.2985,0.006,1.386
149.1,0.0168,0.2985,0.0075,1.3845
149.2,0.0168,0.2985,0.006,1.3845
149.3,0.0167,0.2985,0.0075,1.3845
149.4,0.01685,0.3,0.006,1.383
149.5,0.0168,0.3,0.0075,1.383
149.601,0.0167,0.3,0.006,1.383
149.702,0.01665,0.3015,0.0075,1.3815
149.8,0.0168,0.3015,0.006,1.3815
149.901,0.0167,0.3015,0.0075,1.3815
149.999,0.0168,0.303,0.0075,1.38
150.1,0.0168,0.303,0.0075,1.38
150.2,0.0168,0.303,0.006,1.3785
150.3,0.01685,0.3045,0.0075,1.3785
150.4,0.0168,0.3045,0.0075,1.377
150.5,0.01675,0.3045,0.0075,1.3785
150.6,0.0168,0.3045,0.0075,1.377
150.7,0.01675,0.306,0.0075,1.377
150.8,0.01685,0.306,0.0075,1.3755
150.9,0.0168,0.306,0.0075,1.3755
150.999,0.01685,0.3075,0.0075,1.374
151.1,0.0168,0.3075,0.0075,1.374
151.2,0.0168,0.3075,0.0075,1.3725
151.3,0.01685,0.3075,0.0075,1.3725
151.399,0.01685,0.309,0.0075,1.3725
151.499,0.0168,0.309,0.0075,1.371
151.6,0.01685,0.309,0.0075,1.371
151.699,0.0168,0.3105,0.0075,1.371
151.799,0.0168,0.3105,0.0075,1.3695
151.899,0.01685,0.312,0.0075,1.3695
152.001,0.01675,0.312,0.0075,1.3695
152.1,0.01675,0.312,0.0075,1.368
152.2,0.01685,0.312,0.0075,1.368
152.3,0.01675,0.3135,0.0075,1.368
152.399,0.01685,0.3135,0.0075,1.3665
152.5,0.0167,0.3135,0.0075,1.3665
152.6,0.01685,0.315,0.0075,1.365
152.701,0.0168,0.315,0.0075,1.365
152.8,0.01675,0.315,0.0075,1.365
152.9,0.01675,0.3165,0.0075,1.3635
152.999,0.01685,0.3165,0.0075,1.3635
153.1,0.01685,0.3165,0.0075,1.3635
153.2,0.01685,0.3165,0.0075,1.362
153.299,0.0169,0.318,0.0075,1.362
153.399,0.01685,0.318,0.0075,1.3605
153.5,0.01685,0.318,0.0075,1.3605
153.6,0.01685,0.3195,0.0075,1.3605
153.699,0.01685,0.3195,0.0075,1.359
153.8,0.01675,0.3195,0.0075,1.359
153.899,0.01685,0.321,0.0075,1.359
154,0.01685,0.321,0.0075,1.3575
154.1,0.01685,0.321,0.0075,1.3575
154.2,0.01685,0.3225,0.0075,1.356
154.3,0.0168,0.3225,0.0075,1.3575
154.4,0.01685,0.3225,0.0075,1.356
154.5,0.01685,0.324,0.0075,1.3545
154.599,0.01685,0.324,0.0075,1.3545
154.699,0.01685,0.324,0.0075,1.3545
154.8,0.0168,0.3255,0.0075,1.353
154.899,0.0169,0.3255,0.0075,1.353
155,0.01685,0.3255,0.0075,1.353
155.1,0.0168,0.3255,0.0075,1.3515
155.2,0.01685,0.327,0.0075,1.3515
155.3,0.01685,0.327,0.0075,1.35
155.4,0.01685,0.327,0.0075,1.35
155.5,0.01685,0.3285,0.0075,1.35
155.599,0.01685,0.3285,0.0075,1.35
155.7,0.0168,0.33,0.0075,1.3485
155.8,0.01685,0.33,0.0075,1.3485
155.899,0.0169,0.33,0.0075,1.347
155.999,0.01685,0.33,0.0075,1.347
156.1,0.0168,0.3315,0.0075,1.347
156.2,0.0168,0.3315,0.0075,1.347
156.3,0.01685,0.333,0.0075,1.3455
156.399,0.01685,0.333,0.0075,1.3455
156.499,0.01685,0.333,0.0075,1.344
156.6,0.0168,0.333,0.0075,1.344
156.699,0.01685,0.3345,0.0075,1.344
156.8,0.0169,0.3345,0.0075,1.3425
156.9,0.01685,0.336,0.0075,1.3425
157,0.01685,0.336,0.0075,1.3425
157.1,0.0168,0.336,0.0075,1.3425
157.2,0.01685,0.336,0.0075,1.341
157.3,0.01685,0.3375,0.0075,1.341
157.399,0.01685,0.3375,0.0075,1.3395
157.499,0.01685,0.3375,0.0075,1.3395
157.6,0.0168,0.3375,0.0075,1.3395
157.7,0.01685,0.339,0.0075,1.338
157.8,0.01685,0.339,0.0075,1.338
157.9,0.01685,0.339,0.0075,1.338
158,0.0169,0.3405,0.0075,1.3365
158.1,0.01685,0.3405,0.0075,1.3365
158.2,0.0169,0.3405,0.0075,1.335
158.3,0.01685,0.342,0.0075,1.335
158.4,0.0169,0.342,0.0075,1.335
158.499,0.0169,0.3435,0.0075,1.3335
158.6,0.01685,0.3435,0.0075,1.3335
158.699,0.01685,0.3435,0.0075,1.3335
158.8,0.0168,0.3435,0.0075,1.332
158.9,0.0169,0.345,0.0075,1.332
159,0.01685,0.345,0.0075,1.3305
159.1,0.0168,0.345,0.0075,1.3305
159.199,0.0169,0.3465,0.0075,1.3305
159.3,0.01685,0.3465,0.0075,1.329
159.4,0.01685,0.3465,0.0075,1.329
159.5,0.01685,0.348,0.0075,1.329
159.6,0.0169,0.348,0.0075,1.3275
159.7,0.01685,0.348,0.009,1.3275
159.8,0.01685,0.3495,0.0075,1.3275
159.9,0.0169,0.3495,0.0075,1.326
159.999,0.0169,0.351,0.0075,1.326
160.1,0.01685,0.351,0.0075,1.326
160.2,0.0169,0.351,0.0075,1.3245
160.299,0.01695,0.3525,0.0075,1.3245
160.4,0.0169,0.3525,0.009,1.323
160.5,0.0169,0.3525,0.009,1.323
160.6,0.0169,0.354,0.0075,1.323
160.7,0.01685,0.354,0.009,1.323
160.799,0.01685,0.354,0.009,1.3215
160.9,0.01685,0.3555,0.0075,1.3215
161,0.01685,0.3555,0.009,1.3215
161.1,0.01685,0.3555,0.0075,1.32
161.2,0.0169,0.357,0.009,1.32
161.301,0.01685,0.357,0.009,1.32
161.4,0.0169,0.357,0.009,1.3185
161.501,0.01685,0.3585,0.009,1.3185
161.6,0.0169,0.3585,0.009,1.317
161.7,0.01685,0.3585,0.009,1.317
161.799,0.0169,0.36,0.009,1.317
161.899,0.0169,0.36,0.009,1.3155
162,0.0169,0.3615,0.009,1.3155
162.1,0.01695,0.3615,0.009,1.314
162.2,0.0169,0.3615,0.009,1.314
162.301,0.01685,0.363,0.009,1.314
162.4,0.01685,0.363,0.009,1.314
162.5,0.01685,0.363,0.009,1.3125
162.6,0.0169,0.3645,0.009,1.3125
162.7,0.0169,0.3645,0.009,1.3125
162.8,0.0169,0.3645,0.009,1.311
162.899,0.0169,0.366,0.009,1.311
162.999,0.0169,0.366,0.009,1.3095
163.1,0.0169,0.366,0.009,1.3095
163.2,0.0169,0.3675,0.009,1.3095
163.299,0.0169,0.3675,0.009,1.308
163.399,0.0169,0.3675,0.009,1.308
163.499,0.01695,0.369,0.009,1.308
163.6,0.01685,0.369,0.009,1.3065
163.7,0.0169,0.369,0.009,1.3065
163.799,0.0169,0.3705,0.009,1.305
163.899,0.0169,0.3705,0.009,1.305
164,0.01695,0.372,0.009,1.305
164.1,0.01695,0.372,0.009,1.305
164.199,0.0169,0.372,0.009,1.3035
164.299,0.01695,0.3735,0.009,1.3035
164.4,0.01695,0.3735,0.009,1.302
164.5,0.0169,0.3735,0.009,1.302
164.599,0.01695,0.375,0.009,1.302
164.699,0.01685,0.375,0.009,1.3005
164.799,0.0169,0.375,0.009,1.3005
164.9,0.01695,0.3765,0.009,1.3005
165,0.0169,0.3765,0.009,1.3005
165.1,0.0169,0.378,0.009,1.299
165.199,0.01695,0.378,0.009,1.299
165.3,0.0169,0.378,0.009,1.299
165.4,0.0169,0.3795,0.009,1.2975
165.499,0.01695,0.3795,0.009,1.2975
165.6,0.0169,0.3795,0.009,1.2975
165.699,0.0169,0.381,0.009,1.296
165.799,0.01695,0.381,0.009,1.296
165.9,0.0169,0.381,0.009,1.296
166,0.01695,0.3825,0.009,1.2945
166.099,0.01695,0.3825,0.009,1.2945
166.199,0.0169,0.3825,0.009,1.2945
166.299,0.0169,0.384,0.009,1.293
166.4,0.0169,0.384,0.009,1.293
166.5,0.0169,0.3855,0.009,1.293
166.6,0.0169,0.3855,0.009,1.2915
166.7,0.01695,0.3855,0.009,1.2915
166.8,0.0169,0.387,0.009,1.2915
166.9,0.0169,0.387,0.009,1.29
166.999,0.01685,0.387,0.009,1.29
167.099,0.0169,0.3885,0.009,1.29
167.2,0.0169,0.3885,0.009,1.2885
167.3,0.01695,0.39,0.009,1.2885
167.399,0.0169,0.39,0.009,1.2885
167.499,0.01695,0.39,0.009,1.287
167.6,0.0169,0.3915,0.009,1.287
167.7,0.0169,0.3915,0.009,1.287
167.8,0.01695,0.3915,0.009,1.2855
167.9,0.01695,0.393,0.009,1.2855
168,0.01695,0.393,0.009,1.284
168.099,0.0168,0.3945,0.009,1.284
168.2,0.01695,0.3945,0.009,1.284
168.299,0.0168,0.3945,0.009,1.2825
168.4,0.0169,0.396,0.009,1.2825
168.5,0.0169,0.396,0.009,1.2825
168.599,0.0168,0.396,0.009,1.281
168.7,0.0169,0.3975,0.009,1.281
168.8,0.0169,0.3975,0.009,1.281
168.9,0.0169,0.399,0.009,1.281
168.999,0.01695,0.399,0.009,1.2795
169.1,0.0169,0.399,0.009,1.2795
169.199,0.01685,0.4005,0.009,1.278
169.3,0.0169,0.4005,0.009,1.278
169.4,0.0169,0.4005,0.009,1.278
169.5,0.01695,0.402,0.009,1.2765
169.6,0.0169,0.402,0.009,1.2765
169.7,0.01695,0.4035,0.009,1.2765
169.8,0.0169,0.4035,0.009,1.2765
169.9,0.0169,0.4035,0.0105,1.275
169.999,0.01685,0.405,0.009,1.275
170.099,0.0169,0.405,0.009,1.275
170.2,0.0169,0.4065,0.0105,1.2735
170.299,0.0169,0.4065,0.009,1.2735
170.4,0.01695,0.4065,0.009,1.272
170.5,0.0169,0.408,0.009,1.272
170.6,0.0169,0.408,0.0105,1.272
170.699,0.0168,0.408,0.009,1.2705
170.799,0.0168,0.4095,0.0105,1.2705
170.9,0.0169,0.4095,0.009,1.2705
171.001,0.0169,0.4095,0.0105,1.2705
171.1,0.0169,0.411,0.0105,1.269
171.2,0.0169,0.411,0.0105,1.269
171.3,0.01695,0.4125,0.0105,1.269
171.399,0.0168,0.4125,0.0105,1.2675
171.5,0.0169,0.4125,0.0105,1.2675
171.6,0.01685,0.414,0.0105,1.2675
171.7,0.0169,0.414,0.0105,1.266
171.8,0.0169,0.414,0.0105,1.266
171.9,0.0169,0.4155,0.0105,1.266
171.999,0.0168,0.4155,0.0105,1.2645
172.1,0.0169,0.417,0.0105,1.2645
172.2,0.0169,0.417,0.0105,1.2645
172.3,0.0169,0.4185,0.009,1.263
172.4,0.0169,0.4185,0.0105,1.263
172.499,0.0169,0.4185,0.0105,1.2615
172.599,0.0169,0.42,0.0105,1.2615
172.7,0.0169,0.42,0.0105,1.2615
172.8,0.0169,0.42,0.0105,1.2615
172.9,0.0169,0.4215,0.0105,1.26
173,0.0169,0.4215,0.0105,1.26
173.1,0.0169,0.423,0.0105,1.26
173.2,0.0169,0.423,0.0105,1.2585
173.299,0.0169,0.423,0.0105,1.2585
173.399,0.01695,0.4245,0.0105,1.2585
173.5,0.0169,0.4245,0.0105,1.257
173.6,0.0169,0.426,0.0105,1.257
173.7,0.0169,0.426,0.0105,1.257
173.8,0.0169,0.426,0.0105,1.2555
173.9,0.0169,0.4275,0.0105,1.2555
173.999,0.0169,0.4275,0.0105,1.2555
174.1,0.0169,0.429,0.0105,1.254
174.2,0.01685,0.429,0.0105,1.254
174.299,0.01695,0.4305,0.0105,1.254
174.401,0.01685,0.4305,0.0105,1.2525
174.5,0.0169,0.4305,0.0105,1.2525
174.6,0.01695,0.432,0.0105,1.2525
174.7,0.0169,0.432,0.0105,1.251
174.8,0.0169,0.432,0.0105,1.251
174.9,0.0169,0.432,0.0105,1.251
175,0.0169,0.4335,0.0105,1.251
175.1,0.01695,0.4335,0.0105,1.2495
175.199,0.01695,0.435,0.0105,1.2495
175.3,0.0169,0.435,0.0105,1.2495
175.399,0.0169,0.4365,0.0105,1.248
175.5,0.01685,0.4365,0.0105,1.248
175.6,0.0169,0.4365,0.0105,1.248
175.7,0.01695,0.438,0.0105,1.2465
175.799,0.01685,0.438,0.0105,1.2465
175.899,0.01685,0.438,0.0105,1.2465
175.999,0.01685,0.4395,0.0105,1.245
176.1,0.0169,0.4395,0.0105,1.245
176.2,0.01685,0.441,0.0105,1.245
176.301,0.0168,0.441,0.0105,1.245
176.399,0.01685,0.441,0.0105,1.2435
176.5,0.0169,0.4425,0.0105,1.2435
176.6,0.0169,0.4425,0.0105,1.2435
176.699,0.0169,0.444,0.0105,1.242
176.8,0.01685,0.444,0.0105,1.242
176.9,0.0169,0.4455,0.0105,1.242
176.999,0.0169,0.4455,0.0105,1.2405
177.1,0.0169,0.4455,0.0105,1.2405
177.2,0.01685,0.447,0.0105,1.2405
177.299,0.01695,0.447,0.0105,1.239
177.4,0.01695,0.4485,0.0105,1.239
177.501,0.01685,0.4485,0.0105,1.239
177.6,0.0169,0.45,0.0105,1.2375
177.7,0.0169,0.45,0.0105,1.2375
177.799,0.0169,0.4515,0.0105,1.2375
177.9,0.01685,0.4515,0.0105,1.2375
177.999,0.01695,0.4515,0.0105,1.236
178.099,0.0169,0.453,0.0105,1.236
178.2,0.0169,0.453,0.0105,1.236
